File: 01_Data/Overstuffed_Chair_Polyurethane_Foam/STA/N2/10K_min/Overstuffed_Chair_Polyurethane_Foam_STA_N2_10KData_220128_R1.csv
##Temp./Â°C,Time/min,DSC(subtr.)/(mW/mg),Mass(subtr.2)/%,Sensit./(uV/mW)
49.349,10.01,-0.001757585,99.97574,1.07447
51.949,11.21945,0.07720388,99.96294,1.07428
54.549,11.61709,0.1176,99.96035,1.07408
57.149,11.94857,0.14055,99.94185,1.07386
59.749,12.25408,0.14983,99.9678,1.07363
62.349,12.54771,0.1619,99.95396,1.07338
64.949,12.83206,0.16376,99.9488,1.07312
67.549,13.1136,0.16588,99.95011,1.07284
70.149,13.39163,0.16998,99.94853,1.07254
72.749,13.6675,0.17076,99.94864,1.07223
75.349,13.9414,0.17201,99.9485,1.0719
77.949,14.2121,0.17286,99.93607,1.07156
80.549,14.4807,0.17363,99.9158,1.0712
83.149,14.74794,0.17562,99.90724,1.07082
85.749,15.01176,0.17668,99.9085,1.07043
88.349,15.27511,0.17772,99.9143,1.07003
90.949,15.53551,0.17882,99.91508,1.06961
93.549,15.7956,0.17887,99.90064,1.06917
96.149,16.05363,0.17872,99.93128,1.06872
98.749,16.31062,0.17786,99.89975,1.06825
101.349,16.5657,0.1788,99.9109,1.06777
103.949,16.82079,0.17976,99.89976,1.06727
106.549,17.07509,0.17713,99.8995,1.06675
109.149,17.3286,0.1788,99.93047,1.06623
111.749,17.582,0.17892,99.93209,1.06568
114.349,17.83606,0.17935,99.93117,1.06512
116.949,18.08985,0.17953,99.89976,1.06455
119.549,18.3434,0.1772,99.93218,1.06396
122.149,18.59681,0.17717,99.89976,1.06335
124.749,18.84863,0.17614,99.8995,1.06273
127.349,19.10184,0.17802,99.8995,1.06209
129.949,19.3541,0.17735,99.8637,1.06144
132.549,19.60596,0.17805,99.89975,1.06078
135.149,19.8585,0.17543,99.8784,1.0601
137.749,20.11099,0.17336,99.88316,1.0594
140.349,20.36221,0.17484,99.91363,1.05869
142.949,20.61267,0.17478,99.88269,1.05797
145.549,20.86308,0.17412,99.87335,1.05722
148.149,21.11252,0.17621,99.86708,1.05647
150.749,21.36225,0.17501,99.89975,1.0557
153.349,21.61269,0.17237,99.8805,1.05492
155.949,21.86257,0.1716,99.8918,1.05412
158.549,22.11221,0.17504,99.8916,1.0533
161.149,22.36189,0.17252,99.92433,1.05247
163.749,22.6116,0.17072,99.92387,1.05163
166.349,22.86146,0.17208,99.89116,1.05077
168.949,23.11133,0.17161,99.87522,1.0499
171.549,23.36062,0.17518,99.85891,1.04902
174.149,23.60996,0.17441,99.89141,1.04812
176.749,23.85831,0.1758,99.87522,1.0472
179.349,24.10744,0.17622,99.88339,1.04627
181.949,24.35632,0.17503,99.9079,1.04533
184.549,24.60524,0.17824,99.8754,1.04437
187.149,24.85446,0.17801,99.84166,1.0434
189.749,25.10418,0.17808,99.84801,1.04242
192.349,25.35373,0.17744,99.83915,1.04142
194.949,25.603,0.18132,99.8652,1.0404
197.549,25.85204,0.18554,99.84798,1.03938
200.149,26.10056,0.18679,99.79926,1.03834
202.749,26.34882,0.1892,99.81559,1.03728
205.349,26.59723,0.19033,99.77224,1.03621
207.949,26.845,0.1962,99.73375,1.03513
210.549,27.0929,0.2004,99.78272,1.03404
213.149,27.34027,0.20575,99.6939,1.03293
215.749,27.58783,0.21399,99.65268,1.0318
218.349,27.835,0.22,99.62822,1.03067
220.949,28.08199,0.22898,99.62005,1.02952
223.549,28.3291,0.23615,99.5228,1.02835
226.149,28.5767,0.2388,99.51411,1.02718
228.749,28.82385,0.24902,99.43381,1.02599
231.349,29.071,0.25963,99.38306,1.02479
233.949,29.3181,0.27038,99.25376,1.02357
236.549,29.56515,0.2821,99.15564,1.02234
239.149,29.81275,0.29808,99.02521,1.0211
241.749,30.06053,0.31463,98.89152,1.01985
244.349,30.30824,0.33289,98.74297,1.01858
246.949,30.5557,0.35813,98.49985,1.0173
249.549,30.8041,0.38516,98.2415,1.01601
252.149,31.0525,0.41359,98.0047,1.0147
254.749,31.3012,0.4492,97.65255,1.01338
257.349,31.5502,0.48683,97.27688,1.01205
259.949,31.799,0.53258,96.84483,1.01071
262.549,32.0477,0.58122,96.3412,1.00935
265.149,32.29657,0.63577,95.75731,1.00799
267.749,32.54657,0.69633,95.07299,1.0066
270.349,32.7961,0.7598,94.3244,1.00521
272.949,33.0462,0.8294,93.5029,1.00381
275.549,33.29623,0.90312,92.54912,1.00239
278.149,33.54631,0.97662,91.48116,1.00096
280.749,33.79677,1.05139,90.3477,0.99952
283.349,34.04735,1.12307,89.02702,0.99807
285.949,34.29833,1.19121,87.61371,0.9966
288.549,34.54886,1.24802,86.12597,0.99513
291.149,34.79915,1.29117,84.50737,0.99364
293.749,35.0497,1.3122,82.8955,0.99214
296.349,35.29994,1.2967,81.218,0.99063
298.949,35.5496,1.19494,79.5856,0.98911
301.549,35.7978,1.02096,78.25018,0.98757
304.149,36.04554,0.87764,77.05346,0.98603
306.749,36.29315,0.72265,75.9831,0.98447
309.349,36.54115,0.54979,75.1448,0.9829
311.949,36.78853,0.412,74.50855,0.98133
314.549,37.03663,0.3253,74.0259,0.97974
317.149,37.2848,0.27338,73.6385,0.97813
319.749,37.53366,0.24233,73.31165,0.97652
322.349,37.78302,0.22055,72.99661,0.9749
324.949,38.03218,0.20608,72.72322,0.97327
327.549,38.28255,0.19525,72.43986,0.97162
330.149,38.53252,0.19019,72.17572,0.96997
332.749,38.7838,0.18721,71.90656,0.9683
335.349,39.0354,0.19142,71.5857,0.96663
337.949,39.287,0.19535,71.28241,0.96494
340.549,39.53792,0.2091,70.91806,0.96324
343.149,39.7892,0.22976,70.46299,0.96154
345.749,40.03989,0.25598,69.96709,0.95982
348.349,40.29144,0.28742,69.30025,0.95809
350.949,40.54253,0.32869,68.52793,0.95635
353.549,40.79422,0.37675,67.56411,0.95461
356.149,41.04549,0.43266,66.35565,0.95285
358.749,41.29788,0.49906,64.84093,0.95108
361.349,41.5506,0.57096,62.9773,0.94931
363.949,41.80403,0.65025,60.7497,0.94752
366.549,42.05686,0.73576,57.9291,0.94572
369.149,42.3113,0.82141,54.67123,0.94392
371.749,42.56498,0.89752,50.79668,0.9421
374.349,42.81847,0.9619,46.39201,0.94028
376.949,43.07197,1.00104,41.53685,0.93845
379.549,43.32535,1.00631,36.3236,0.9366
382.149,43.57857,0.97429,30.882,0.93475
384.749,43.83148,0.9024,25.6787,0.93289
387.349,44.08384,0.78952,20.773,0.93102
389.949,44.3355,0.64671,16.39423,0.92914
392.549,44.58718,0.50411,12.8011,0.92725
395.149,44.8384,0.37348,9.99709,0.92536
397.749,45.09016,0.26598,7.79985,0.92345
400.349,45.3423,0.18188,6.16506,0.92154
402.949,45.59495,0.1248,5.00199,0.91962
405.549,45.8474,0.0789752,4.16126,0.91768
408.149,46.10065,0.04844154,3.5981,0.91575
410.749,46.3537,0.02448574,3.14522,0.9138
413.349,46.60717,0.007977446,2.91366,0.91184
415.949,46.8608,7.587055e-05,2.66455,0.90988
418.549,47.1143,-0.00877578,2.56655,0.90791
421.149,47.36847,-0.01380243,2.46838,0.90593
423.749,47.62316,-0.0123886,2.33862,0.90394
426.349,47.8769,-0.01074632,2.26599,0.90194
428.949,48.13069,-0.0009776347,2.20075,0.89994
431.549,48.38511,0.007832191,2.13519,0.89793
434.149,48.6391,0.01108908,2.15123,0.89591
436.749,48.89375,0.01517792,2.08486,0.89389
439.349,49.14824,0.007286904,2.0701,0.89185
441.949,49.40276,-0.00149243,2.0453,0.88981
444.549,49.65967,-0.01151855,2.0453,0.88776
447.149,49.9156,-0.01749686,2.03738,0.88571
449.749,50.17138,-0.02580667,2.02921,0.88365
452.349,50.42671,-0.02668252,1.99642,0.88158
454.949,50.68327,-0.02796575,2.01284,0.8795
457.549,50.93953,-0.03497619,1.95617,0.87742
460.149,51.19591,-0.03495012,1.94777,0.87533
462.749,51.45262,-0.03689183,1.91896,0.87323
465.349,51.70805,-0.03825011,1.94777,0.87113
467.949,51.96396,-0.03827877,1.9151,0.86902
470.549,52.21985,-0.04179417,1.9151,0.8669
473.149,52.4761,-0.04527585,1.88272,0.86478
475.749,52.73265,-0.0476471,1.88272,0.86265
478.349,52.9893,-0.04806783,1.89901,0.86052
480.949,53.2461,-0.05255587,1.85,0.85837
483.549,53.50255,-0.05401041,1.8473,0.85623
486.149,53.76002,-0.05638708,1.85812,0.85407
488.749,54.0163,-0.06033646,1.8094,0.85191
491.349,54.27406,-0.06384524,1.7913,0.84975
493.949,54.53085,-0.06708212,1.79307,0.84758
496.549,54.78764,-0.06929315,1.76857,0.8454
499.149,55.0441,-0.07392935,1.76061,0.84322
501.749,55.30066,-0.08253189,1.72782,0.84103
504.349,55.5568,-0.09222321,1.72797,0.83884
506.949,55.8137,-0.09933467,1.73349,0.83664
509.549,56.07102,-0.10221,1.71955,0.83444
512.149,56.3288,-0.10941,1.71955,0.83223
514.749,56.5868,-0.11164,1.71955,0.83001
517.349,56.8452,-0.11145,1.69775,0.82779
519.949,57.10341,-0.11522,1.66265,0.82557
522.549,57.36153,-0.11687,1.67826,0.82334
525.149,57.6202,-0.12166,1.71161,0.82111
527.749,57.87924,-0.12308,1.67896,0.81887
530.349,58.13775,-0.12588,1.67079,0.81662
532.949,58.39686,-0.12565,1.68713,0.81438
535.549,58.65591,-0.12592,1.64486,0.81212
538.149,58.9153,-0.12741,1.67896,0.80987
540.749,59.17475,-0.12604,1.63875,0.80761
543.349,59.434,-0.13078,1.65446,0.80534
545.949,59.6931,-0.13047,1.64819,0.80307
548.549,59.95222,-0.12927,1.6547,0.8008
551.149,60.21128,-0.12985,1.63232,0.79852
553.749,60.4702,-0.13046,1.61386,0.79624
556.349,60.72956,-0.12975,1.62179,0.79395
558.949,60.98959,-0.13099,1.62257,0.79166
561.549,61.24905,-0.13013,1.62203,0.78937
564.149,61.50909,-0.12927,1.60538,0.78707
566.749,61.7686,-0.12646,1.60529,0.78477
569.349,62.02769,-0.12498,1.57302,0.78247
571.949,62.28679,-0.12453,1.57302,0.78016
574.549,62.5463,-0.1214,1.57302,0.77785
577.149,62.8054,-0.12205,1.54059,0.77554
579.749,63.0653,-0.12016,1.54059,0.77322
582.349,63.3256,-0.11889,1.58116,0.7709
584.949,63.58549,-0.11736,1.54917,0.76858
587.549,63.84619,-0.11543,1.53245,0.76625
590.149,64.107,-0.10941,1.53242,0.76392
592.749,64.36896,-0.10952,1.53254,0.76159
595.349,64.62975,-0.10567,1.55696,0.75925
597.949,64.8917,-0.09721314,1.33051,0.75692
600.549,65.15148,-0.09887966,1.47834,0.75458
603.149,65.41072,-0.09991486,1.59754,0.75223
605.749,65.6701,-0.09844073,1.50002,0.74989
608.349,65.93009,-0.0972564,1.51606,0.74754
610.949,66.1896,-0.09679789,1.40228,0.74519
613.549,66.44906,-0.0911091,1.43017,0.74284
616.149,66.70883,-0.09717771,1.62206,0.74049
618.749,66.96858,-0.09113707,1.66194,0.73813
621.349,67.22883,-0.09192614,1.54074,0.73577
623.949,67.48918,-0.08839696,1.49353,0.73341
626.549,67.7498,-0.08701746,1.48341,0.73105
629.149,68.01109,-0.08366124,1.47525,0.72869
631.749,68.27348,-0.08814073,1.45891,0.72632
634.349,68.5359,-0.09124695,1.49159,0.72395
636.949,68.79791,-0.09108095,1.42565,0.72159
639.549,69.06007,-0.08848838,1.44258,0.71922
642.149,69.32162,-0.08812008,1.42649,0.71684
644.749,69.5833,-0.08864079,1.41831,0.71447
647.349,69.8444,-0.08497206,1.44286,0.7121
648.849,69.99563,-0.08607338,1.44282,0.71073