File: 01_Data/PE_Batting_82B/MCC/PE_Batting_82B_MCC_30K_min_220309_R1.txt
Sample ID:	C:\MCC\MCC Cal\Test\PE_batting_82B_MCC_30K_min_220309_R1.txt
Sample Weight (mg):	4.13
Heating Rate (C/s):	0.5
Combustor Temp (C):	900
N2 Flow Rate (cc/min):	80
O2 Flow Rate (cc/min):	20
Calibration File:	C:\MCC\MCC Cal\Coeff1 JN10440_30_210304.txt.txt
T Correction Coefficients:	0	1.024463	0
Time Shift (s):	14
*
Time (s)	Temperature (C)	N2 flow rate (cc/min)	O2 flow rate (cc/min)	Flow Rate (cc/min)	Oxygen (%)	HRR (W/g)	Heating rate (C/s)
0.000	108.117	80.004	19.993	103.688	20.079	-0.266	0.010
8.000	108.149	80.003	19.993	103.691	20.082	-0.519	-0.019
15.999	108.098	80.005	19.993	103.718	20.074	0.128	-0.012
24.000	108.394	80.007	19.993	103.841	20.052	1.884	0.038
31.999	109.045	80.004	19.992	103.882	20.043	2.542	0.131
40.000	110.217	80.005	19.994	103.871	20.045	2.392	0.146
48.000	111.681	80.007	19.993	103.901	20.044	2.469	0.157
55.999	113.504	80.004	19.993	103.883	20.043	2.541	0.245
63.999	115.495	80.005	19.994	103.897	20.040	2.784	0.246
72.000	117.764	80.004	19.993	103.926	20.036	3.165	0.296
79.999	120.306	80.006	19.993	103.943	20.033	3.360	0.343
87.999	123.132	80.005	19.994	103.943	20.034	3.274	0.374
95.999	126.183	80.005	19.995	103.952	20.031	3.516	0.393
103.999	129.453	80.006	19.994	103.951	20.031	3.542	0.433
112.000	132.914	80.006	19.993	103.951	20.033	3.402	0.456
119.999	136.478	80.005	19.993	103.969	20.031	3.514	0.430
127.999	140.304	80.008	19.994	103.954	20.031	3.553	0.477
136.000	144.200	80.006	19.993	103.947	20.031	3.507	0.491
144.000	148.162	80.004	19.994	103.948	20.032	3.458	0.491
152.000	152.270	80.005	19.993	103.947	20.032	3.408	0.533
160.000	156.303	80.004	19.995	103.948	20.034	3.269	0.512
168.000	160.421	80.005	19.994	103.926	20.035	3.225	0.554
176.000	164.500	80.005	19.995	103.924	20.037	3.034	0.526
184.000	168.567	80.005	19.993	103.920	20.033	3.329	0.495
192.000	172.624	80.006	19.992	103.909	20.035	3.186	0.532
200.000	176.661	80.006	19.994	103.911	20.035	3.179	0.498
208.000	180.657	80.007	19.993	103.908	20.035	3.236	0.500
216.000	184.636	80.007	19.994	103.905	20.034	3.259	0.504
224.000	188.687	80.004	19.994	103.908	20.036	3.123	0.510
232.000	192.673	80.004	19.993	103.901	20.030	3.560	0.453
240.000	196.604	80.004	19.994	103.902	20.029	3.701	0.458
248.000	200.516	80.002	19.994	103.893	20.024	4.088	0.418
256.000	204.494	80.003	19.995	103.877	20.017	4.594	0.467
264.000	208.489	80.004	19.994	103.885	20.010	5.157	0.524
272.000	212.436	80.005	19.992	103.894	20.002	5.789	0.498
280.000	216.367	80.006	19.994	103.896	19.991	6.653	0.490
288.000	220.339	80.007	19.993	103.898	19.974	7.994	0.490
296.000	224.338	80.007	19.994	103.882	19.950	9.876	0.486
304.000	228.288	80.005	19.993	103.897	19.923	11.977	0.516
312.000	232.281	80.005	19.994	103.904	19.890	14.565	0.479
320.000	236.241	80.004	19.993	103.913	19.854	17.380	0.469
328.000	240.216	80.004	19.995	103.927	19.812	20.719	0.503
336.000	244.165	80.003	19.995	103.932	19.766	24.351	0.488
344.000	248.177	80.004	19.995	103.949	19.721	27.825	0.461
352.000	252.204	80.005	19.995	103.938	19.668	32.058	0.510
360.000	256.230	80.004	19.993	103.960	19.608	36.785	0.493
368.000	260.159	80.005	19.994	103.974	19.535	42.454	0.484
376.000	264.162	80.005	19.993	103.979	19.455	48.811	0.490
384.000	268.161	80.004	19.997	103.997	19.366	55.745	0.507
392.000	272.212	80.004	19.992	104.027	19.272	63.189	0.499
400.000	276.244	80.006	19.993	104.033	19.184	70.108	0.480
408.000	280.281	80.005	19.995	104.052	19.099	76.830	0.518
416.000	284.330	80.004	19.994	104.057	19.048	80.768	0.498
424.000	288.357	80.006	19.994	104.041	19.061	79.746	0.503
432.000	292.425	80.005	19.994	104.005	19.189	69.693	0.517
440.000	296.495	80.004	19.994	103.990	19.398	53.215	0.532
448.000	300.546	80.005	19.994	103.960	19.571	39.646	0.499
456.000	304.630	80.007	19.993	103.938	19.655	33.004	0.528
464.000	308.673	80.005	19.993	103.904	19.706	29.025	0.518
472.000	312.806	80.004	19.993	103.893	19.743	26.082	0.528
480.000	316.893	80.004	19.993	103.879	19.780	23.191	0.496
488.000	320.961	80.004	19.994	103.873	19.822	19.881	0.513
496.000	324.926	80.004	19.994	103.870	19.857	17.167	0.522
504.000	329.010	80.005	19.993	103.872	19.885	14.957	0.562
512.000	332.985	80.006	19.993	103.855	19.903	13.560	0.496
520.000	336.981	80.006	19.994	103.845	19.916	12.570	0.492
528.000	340.917	80.005	19.994	103.834	19.914	12.660	0.491
536.000	344.941	80.006	19.994	103.831	19.910	12.987	0.489
544.000	348.919	80.006	19.995	103.830	19.893	14.305	0.496
552.000	352.985	80.005	19.994	103.840	19.868	16.318	0.491
560.000	357.048	80.006	19.993	103.837	19.821	19.976	0.504
568.000	361.096	80.005	19.994	103.842	19.758	24.973	0.525
576.000	365.155	80.005	19.994	103.853	19.651	33.345	0.518
584.000	369.196	80.005	19.995	103.872	19.502	45.073	0.487
592.000	373.255	80.006	19.995	103.888	19.284	62.165	0.500
600.000	377.307	80.006	19.995	103.905	18.986	85.587	0.510
608.000	381.320	80.007	19.993	103.946	18.580	117.435	0.467
616.000	385.291	80.006	19.993	103.912	18.136	152.307	0.498
624.000	389.314	80.005	19.993	103.913	17.701	186.307	0.537
632.000	393.285	80.003	19.994	103.828	17.392	210.416	0.516
640.000	397.321	80.005	19.994	103.794	17.308	216.960	0.535
648.000	401.368	80.005	19.994	103.755	17.456	205.465	0.514
656.000	405.376	80.005	19.994	103.783	17.735	183.534	0.504
664.000	409.434	80.007	19.994	103.777	18.043	159.363	0.479
672.000	413.555	80.007	19.994	103.772	18.389	132.247	0.547
680.000	417.561	80.006	19.993	103.796	18.716	106.624	0.498
688.000	421.675	80.006	19.995	103.805	19.003	84.165	0.478
696.000	425.743	80.005	19.994	103.835	19.231	66.237	0.513
704.000	429.816	80.007	19.994	103.830	19.427	50.911	0.531
712.000	433.848	80.005	19.994	103.829	19.606	36.818	0.495
720.000	437.942	80.006	19.994	103.806	19.755	25.168	0.508
728.000	442.048	80.006	19.994	103.801	19.877	15.627	0.501
736.000	446.089	80.005	19.993	103.800	19.967	8.570	0.519
744.000	450.106	80.004	19.993	103.798	20.015	4.772	0.513
752.000	454.191	80.005	19.992	103.797	20.040	2.836	0.516
760.000	458.241	80.006	19.994	103.802	20.054	1.712	0.508
768.000	462.375	80.005	19.994	103.795	20.063	1.003	0.505
776.000	466.387	80.007	19.992	103.787	20.069	0.508	0.515
784.000	470.477	80.006	19.994	103.789	20.071	0.398	0.512
792.000	474.664	80.005	19.994	103.793	20.075	0.065	0.565
800.000	478.703	80.004	19.994	103.795	20.078	-0.132	0.503
808.000	482.797	80.003	19.994	103.794	20.076	0.015	0.512
816.000	486.931	80.004	19.995	103.799	20.075	0.093	0.498
824.000	490.994	80.004	19.994	103.796	20.072	0.268	0.487
832.000	495.125	80.008	19.993	103.797	20.076	0.019	0.512
840.000	499.164	80.005	19.994	103.795	20.075	0.030	0.500
848.000	503.245	80.006	19.993	103.790	20.074	0.143	0.517
856.000	507.327	80.007	19.993	103.788	20.077	-0.117	0.538
864.000	511.412	80.007	19.994	103.789	20.075	0.093	0.529
872.000	515.509	80.004	19.992	103.790	20.075	0.052	0.509
880.000	519.589	80.004	19.994	103.792	20.080	-0.324	0.505
888.000	523.702	80.002	19.995	103.799	20.078	-0.143	0.541
896.000	527.784	80.005	19.993	103.794	20.080	-0.301	0.514
904.000	531.891	80.003	19.994	103.793	20.080	-0.348	0.541
912.000	536.039	80.006	19.994	103.795	20.079	-0.285	0.531
920.000	540.139	80.006	19.994	103.787	20.081	-0.413	0.559
928.000	544.186	80.006	19.993	103.793	20.080	-0.331	0.518
936.000	548.177	80.008	19.993	103.859	20.078	-0.138	0.498
944.000	552.214	80.007	19.994	103.792	20.077	-0.123	0.483
952.000	556.288	80.004	19.993	103.795	20.080	-0.337	0.519
960.000	560.282	80.006	19.992	103.797	20.080	-0.320	0.490
968.000	564.302	80.005	19.994	103.794	20.082	-0.480	0.516
976.000	568.280	80.005	19.994	103.791	20.086	-0.798	0.467
984.000	572.158	80.004	19.995	103.798	20.080	-0.320	0.502
992.000	576.519	80.004	19.991	103.795	20.081	-0.370	0.451
1000.000	580.683	80.005	19.994	103.796	20.082	-0.502	0.494
1008.000	584.951	80.005	19.994	103.797	20.080	-0.311	0.557
1016.000	589.253	80.005	19.993	103.800	20.081	-0.393	0.546
1024.000	593.532	80.007	19.993	103.796	20.081	-0.389	0.564
1031.999	597.806	80.006	19.994	103.800	20.080	-0.305	0.517
1039.999	602.022	80.005	19.994	103.795	20.079	-0.218	0.514
1048.000	606.059	80.005	19.995	103.795	20.078	-0.145	0.513
1055.999	610.024	80.006	19.994	103.794	20.077	-0.123	0.505
1063.999	613.855	80.004	19.992	103.798	20.078	-0.199	0.488
1071.999	617.726	80.007	19.994	103.801	20.080	-0.342	0.481
1079.999	621.755	80.006	19.993	103.803	20.078	-0.151	0.522
1087.999	625.928	80.006	19.994	103.801	20.077	-0.093	0.537
1096.001	630.171	80.005	19.995	103.794	20.076	-0.041	0.526
1103.999	634.462	80.006	19.995	103.824	20.076	0.011	0.551
1111.999	638.678	80.006	19.994	103.802	20.076	-0.024	0.513
1119.999	642.769	80.005	19.993	103.813	20.079	-0.223	0.485
1128.000	646.812	80.005	19.993	103.804	20.077	-0.123	0.510
1135.999	650.844	80.006	19.994	103.807	20.075	0.030	0.509
1143.999	654.876	80.005	19.993	103.820	20.078	-0.205	0.495
1151.999	658.964	80.005	19.993	103.830	20.077	-0.054	0.540
1160.001	663.048	80.007	19.994	103.812	20.079	-0.218	0.512
1167.999	667.004	80.006	19.993	103.818	20.074	0.117	0.284
1175.999	670.974	80.006	19.994	103.823	20.075	0.056	0.174
1184.000	675.318	80.008	19.994	103.803	20.073	0.227	0.483
1191.999	679.537	80.007	19.993	103.805	20.071	0.357	0.545
1199.999	683.707	80.005	19.994	103.799	20.072	0.322	0.515
1208.000	687.976	80.006	19.993	103.796	20.074	0.171	0.515
1215.999	692.167	80.006	19.993	103.797	20.073	0.249	0.527
1224.000	696.373	80.005	19.994	103.791	20.075	0.056	0.514
1231.999	700.494	80.005	19.992	103.788	20.076	0.013	0.540
1240.000	704.424	80.007	19.994	103.789	20.074	0.123	0.516
1247.999	708.422	80.008	19.993	103.785	20.078	-0.166	0.492
1255.999	712.479	80.005	19.993	103.791	20.075	0.056	0.540
1263.999	716.519	80.006	19.994	103.783	20.073	0.184	0.520
1272.000	720.587	80.008	19.994	103.770	20.074	0.153	0.508
1279.999	724.600	80.004	19.993	103.775	20.069	0.517	0.496
1287.999	728.733	80.006	19.995	103.787	20.065	0.858	0.501
1295.999	732.786	80.004	19.994	103.789	20.071	0.413	0.503
1303.999	736.876	80.007	19.994	103.792	20.067	0.653	0.526
1311.999	740.928	80.006	19.993	103.783	20.067	0.659	0.502
1316.999	743.521	80.006	19.993	103.789	20.068	0.586	0.532