File: 01_Data/Vinyl_Siding/STA/N2/30K_min/Vinyl_Siding_STA_N2_30KData_210207_R1.csv
##Temp./Â°C,Time/min,Mass loss(subtr.2)/mg,DSC(subtr.2)/mW,Sensit./(uV/mW)
50.619,10.00917,0.00767,-0.11135,0.6235
53.519,11.54822,0.007496526,0.20787,0.62347
56.419,11.8932,0.0075417,0.43786,0.62342
59.319,12.1449,0.0059811,0.62817,0.62336
62.219,12.3547,0.00596845,0.80444,0.62328
65.119,12.54141,0.00599952,0.92493,0.6232
68.019,12.7128,0.003715671,0.99077,0.6231
70.919,12.8744,0.006535464,1.04684,0.62299
73.819,13.0288,0.00449209,1.10935,0.62286
76.719,13.1769,0.004776381,1.15143,0.62273
79.619,13.32076,0.00503929,1.21272,0.62258
82.519,13.46061,0.004509774,1.288,0.62242
85.419,13.5965,0.005490619,1.39523,0.62225
88.319,13.7291,0.004378182,1.50481,0.62206
91.219,13.8581,0.004140045,1.57752,0.62187
94.119,13.98385,0.004377263,1.62075,0.62166
97.019,14.10648,0.004874679,1.65908,0.62144
99.919,14.2265,0.0040621,1.71408,0.6212
102.819,14.34394,0.004093441,1.79254,0.62096
105.719,14.4595,0.0040628,1.89198,0.6207
108.619,14.5725,0.0044925,1.9993,0.62043
111.519,14.68345,0.004047335,2.11209,0.62016
114.419,14.79261,0.003380754,2.2411,0.61986
117.319,14.9,0.002879282,2.33307,0.61956
120.219,15.00564,0.004256968,2.40238,0.61925
123.119,15.1097,0.00550854,2.47935,0.61892
126.019,15.2121,0.00415,2.54467,0.61859
128.919,15.3129,0.00413538,2.60522,0.61824
131.819,15.4121,0.00413905,2.67033,0.61788
134.719,15.51034,0.002492577,2.76232,0.61751
137.619,15.607,0.00284977,2.84383,0.61713
140.519,15.7027,0.004196519,2.89592,0.61674
143.419,15.79747,0.002912464,2.97043,0.61634
146.319,15.8912,0.00417042,3.03832,0.61593
149.219,15.98391,0.002844705,3.10305,0.61551
152.119,16.07595,0.002789583,3.17843,0.61507
155.019,16.16733,0.004169957,3.29655,0.61463
157.919,16.25806,0.00327922,3.34382,0.61418
160.819,16.348,0.001538281,3.41526,0.61371
163.719,16.43778,0.00415121,3.49082,0.61324
166.619,16.52683,0.004134341,3.53126,0.61275
169.519,16.6155,0.002850477,3.57607,0.61226
172.419,16.70364,0.002849885,3.6381,0.61176
175.319,16.79105,0.001531284,3.68916,0.61124
178.219,16.87781,0.002464795,3.74962,0.61072
181.119,16.96434,0.003492404,3.7768,0.61019
184.019,17.05039,0.00213384,3.81169,0.60964
186.919,17.13583,0.00263893,3.83524,0.60909
189.819,17.22056,0.00153009,3.85426,0.60853
192.719,17.30499,0.00153,3.88632,0.60796
195.619,17.38898,0.00153,3.93668,0.60738
198.519,17.47256,0.00153,3.96475,0.60679
201.419,17.55576,0.00153,3.99052,0.60619
204.319,17.6387,0.00153,4.00286,0.60558
207.219,17.72137,0.001499235,4.02394,0.60497
210.119,17.80365,0.00219633,4.0477,0.60434
213.019,17.88573,-0.000412062,4.07168,0.60371
215.919,17.9676,-0.00177907,4.11771,0.60306
218.819,18.04924,-0.00175005,4.16559,0.60241
221.719,18.13081,0.000750926,4.18941,0.60175
224.619,18.21186,-0.001750482,4.19399,0.60109
227.519,18.29298,-0.001764494,4.2226,0.60041
230.419,18.3738,-0.002411118,4.26643,0.59973
233.319,18.45443,-0.003064556,4.28076,0.59904
236.219,18.53499,-0.00434793,4.32233,0.59834
239.119,18.61531,-0.00570815,4.32807,0.59763
242.019,18.69545,-0.00694036,4.33516,0.59691
244.919,18.7756,-0.00833024,4.36984,0.59619
247.819,18.85549,-0.008354489,4.38164,0.59546
250.719,18.93519,-0.008340941,4.44646,0.59472
253.619,19.015,-0.01096685,4.46424,0.59397
256.519,19.09449,-0.01132516,4.5266,0.59322
259.419,19.1739,-0.01417548,4.58992,0.59246
262.319,19.25316,-0.0189795,4.68048,0.59169
265.219,19.33251,-0.02522914,4.76542,0.59092
268.119,19.4118,-0.03052379,4.81686,0.59014
271.019,19.491,-0.03485494,4.8742,0.58935
273.919,19.57005,-0.04059257,4.89693,0.58855
276.819,19.64914,-0.04793831,4.94308,0.58775
279.719,19.72831,-0.05431679,5.01779,0.58694
282.619,19.8073,-0.06258494,5.06692,0.58613
285.519,19.88628,-0.07121036,5.07487,0.5853
288.419,19.96529,-0.08110393,5.12027,0.58448
291.319,20.04428,-0.09515967,5.16404,0.58364
294.219,20.1232,-0.11216,5.1523,0.5828
297.119,20.20215,-0.13138,5.24326,0.58196
300.019,20.28106,-0.16177,5.88526,0.5811
302.919,20.36015,-0.20242,6.93432,0.58025
305.819,20.4393,-0.25241,8.01336,0.57938
308.719,20.5186,-0.31292,8.97441,0.57851
311.619,20.59815,-0.38645,9.81317,0.57764
314.519,20.67771,-0.46799,10.51269,0.57676
317.419,20.75724,-0.56065,11.0331,0.57587
320.319,20.83697,-0.66275,11.35763,0.57498
323.219,20.9166,-0.77107,11.51661,0.57408
326.119,20.9962,-0.8806,11.41423,0.57318
329.019,21.07594,-0.98797,11.0575,0.57227
331.919,21.15551,-1.08715,10.5141,0.57136
334.819,21.23529,-1.18043,9.8751,0.57045
337.719,21.31496,-1.26354,9.2239,0.56952
340.619,21.39479,-1.3391,8.574,0.5686
343.519,21.47457,-1.4068,7.91948,0.56767
346.419,21.55446,-1.46463,7.30836,0.56673
349.319,21.6344,-1.51737,6.69789,0.56579
352.219,21.71426,-1.56301,6.10123,0.56485
355.119,21.79447,-1.60521,5.5064,0.5639
358.019,21.87456,-1.6401,4.84436,0.56295
360.919,21.95477,-1.67022,4.18009,0.56199
363.819,22.03519,-1.69594,3.56497,0.56103
366.719,22.11554,-1.71823,3.00653,0.56007
369.619,22.19614,-1.73727,2.54986,0.5591
372.519,22.27684,-1.74884,2.22131,0.55813
375.419,22.35761,-1.75888,2.03237,0.55716
378.319,22.43856,-1.76939,1.98473,0.55618
381.219,22.51974,-1.77611,2.0322,0.5552
384.119,22.60106,-1.78351,2.06548,0.55421
387.019,22.68229,-1.78578,2.09072,0.55322
389.919,22.76425,-1.79057,2.07966,0.55223
392.819,22.84593,-1.79737,2.1096,0.55123
395.719,22.92807,-1.80243,2.1267,0.55024
398.619,23.01,-1.80871,2.13724,0.54924
401.519,23.09222,-1.81309,2.16107,0.54823
404.419,23.17461,-1.81986,2.22119,0.54723
407.319,23.25729,-1.82633,2.27066,0.54622
410.219,23.33999,-1.83612,2.32782,0.54521
413.119,23.4228,-1.84536,2.38697,0.54419
416.019,23.50579,-1.85512,2.43396,0.54318
418.919,23.5889,-1.86812,2.50048,0.54216
421.819,23.67212,-1.88008,2.5627,0.54114
424.719,23.7555,-1.89344,2.62742,0.54011
427.619,23.83904,-1.90874,2.63806,0.53909
430.519,23.92265,-1.92448,2.59567,0.53806
433.419,24.0064,-1.94123,2.55207,0.53703
436.319,24.0903,-1.95733,2.42591,0.536
439.219,24.17451,-1.97632,2.28447,0.53497
442.119,24.25881,-1.99532,2.11707,0.53393
445.019,24.34306,-2.01542,1.94832,0.5329
447.919,24.42752,-2.03513,1.81965,0.53186
450.819,24.51224,-2.05459,1.7249,0.53082
453.719,24.59694,-2.07749,1.67715,0.52978
456.619,24.6819,-2.10127,1.7134,0.52874
459.519,24.76687,-2.12602,1.83694,0.52769
462.419,24.85226,-2.15406,2.00928,0.52665
465.319,24.93766,-2.18368,2.25962,0.5256
468.219,25.02316,-2.21421,2.47934,0.52456
471.119,25.1093,-2.24993,2.67447,0.52351
474.019,25.19537,-2.28374,2.84291,0.52246
476.919,25.28161,-2.31776,3.06886,0.52141
479.819,25.36808,-2.35152,3.27094,0.52036
482.719,25.45474,-2.38506,3.36307,0.51931
485.619,25.54157,-2.41635,3.34072,0.51826
488.519,25.62849,-2.44816,3.27226,0.51721
491.419,25.71586,-2.48134,3.19767,0.51616
494.319,25.80333,-2.50731,3.13181,0.51511
497.219,25.8906,-2.53249,2.99476,0.51406
500.119,25.97835,-2.55514,2.91585,0.513
503.019,26.0661,-2.57784,2.77657,0.51195
505.919,26.1541,-2.59617,2.65483,0.5109
508.819,26.2421,-2.62643,2.50786,0.50984
511.719,26.3301,-2.63096,2.34524,0.50879
514.619,26.4184,-2.64332,2.22018,0.50774
517.519,26.507,-2.65474,2.07152,0.50669
520.419,26.59535,-2.66606,2.02223,0.50563
523.319,26.684,-2.67319,1.88397,0.50458
526.219,26.77273,-2.67258,1.80213,0.50353
529.119,26.8607,-2.69903,1.7529,0.50248
532.019,26.95004,-2.69067,1.72937,0.50143
534.919,27.0392,-2.69466,1.64974,0.50038
537.819,27.12828,-2.69954,1.66102,0.49933
540.719,27.2174,-2.70114,1.59388,0.49828
543.619,27.3068,-2.70293,1.58545,0.49723
546.519,27.3964,-2.70564,1.56895,0.49618
549.419,27.486,-2.70829,1.53075,0.49514
552.319,27.57585,-2.71082,1.51255,0.49409
555.219,27.6659,-2.71229,1.44207,0.49305
558.119,27.75615,-2.71364,1.34409,0.492
561.019,27.84625,-2.7163,1.22995,0.49096
563.919,27.9367,-2.71759,1.2291,0.48992
566.819,28.02737,-2.7201,1.15627,0.48888
569.719,28.1181,-2.7189,1.1147,0.48784
572.619,28.209,-2.72022,1.1019,0.4868
575.519,28.29993,-2.72326,1.10552,0.48577
578.419,28.3909,-2.72417,1.01882,0.48473
581.319,28.4821,-2.72544,0.97029,0.4837
584.219,28.57331,-2.72779,0.96233,0.48266
587.119,28.66445,-2.72779,1.02662,0.48163
590.019,28.75576,-2.72775,1.1108,0.4806
592.919,28.8472,-2.73042,1.1715,0.47958
595.819,28.93883,-2.73174,1.28257,0.47855
598.719,29.03042,-2.73174,1.43948,0.47753
601.619,29.12225,-2.73453,1.64984,0.47651
604.519,29.21439,-2.73448,1.93877,0.47548
607.419,29.30657,-2.7358,2.23697,0.47447
610.319,29.3989,-2.73842,2.70789,0.47345
613.219,29.49127,-2.74101,3.02174,0.47243
616.119,29.5838,-2.74257,2.8103,0.47142
619.019,29.6762,-2.74654,1.92441,0.47041
621.919,29.7688,-2.74588,1.38809,0.4694
624.819,29.8612,-2.74858,1.19849,0.46839
627.719,29.9536,-2.75136,1.10691,0.46739
630.619,30.0464,-2.75136,0.99283,0.46639
633.519,30.1391,-2.754,0.98692,0.46539
636.419,30.23204,-2.75532,0.99596,0.46439
639.319,30.32505,-2.75654,0.95838,0.46339
642.219,30.4183,-2.75785,0.93664,0.4624
645.119,30.51169,-2.75916,0.91285,0.46141
648.019,30.6052,-2.7605,0.86539,0.46042
650.919,30.69868,-2.76311,0.88674,0.45943
653.819,30.79242,-2.7631,0.85343,0.45845
656.719,30.88625,-2.7641,0.8261,0.45747
659.619,30.98,-2.76552,0.80757,0.45649
662.519,31.0741,-2.76777,0.77997,0.45551
665.419,31.1681,-2.76914,0.76002,0.45454
668.319,31.26223,-2.77042,0.71945,0.45357
671.219,31.35646,-2.77286,0.67144,0.4526
674.119,31.4506,-2.77443,0.6565,0.45163
677.019,31.54506,-2.77441,0.66225,0.45067
679.919,31.63935,-2.77703,0.69058,0.44971
682.819,31.73392,-2.77844,0.71834,0.44875
685.719,31.82863,-2.77836,0.80224,0.4478
688.619,31.92322,-2.78014,0.87339,0.44685
691.519,32.01813,-2.7811,0.9967,0.4459
694.419,32.113,-2.78245,0.99647,0.44495
697.319,32.20799,-2.78504,0.91081,0.44401
700.219,32.3031,-2.78635,0.82066,0.44306
703.119,32.3981,-2.78927,0.65626,0.44213
706.019,32.49317,-2.79368,0.57751,0.44119
708.919,32.58825,-2.79371,0.5204,0.44026
711.819,32.68342,-2.796,0.45422,0.43933
714.719,32.77858,-2.79841,0.38148,0.4384
717.619,32.8741,-2.80059,0.28069,0.43748
720.519,32.96974,-2.80231,0.28838,0.43656
723.419,33.0653,-2.80459,0.22081,0.43564
726.319,33.161,-2.80753,0.14094,0.43473
729.219,33.2569,-2.8082,0.09424446,0.43382
731.419,33.33098,-2.80994,0.04124909,0.43313