File: 01_Data/Vinyl_Siding/STA/N2/30K_min/Vinyl_Siding_STA_N2_30KData_210207_R2.csv
##Temp./Â°C,Time/min,Mass loss(subtr.2)/mg,DSC(subtr.2)/mW,Sensit./(uV/mW)
50.604,10.01,-0.00856,-0.007341824,0.6235
53.504,11.54387,-0.01178799,0.4457,0.62347
56.404,11.89372,-0.01223046,0.78613,0.62342
59.304,12.1451,-0.0116359,1.05233,0.62336
62.204,12.35483,-0.01120764,1.30262,0.62328
65.104,12.54172,-0.01032208,1.47074,0.6232
68.004,12.71327,-0.01119211,1.5965,0.6231
70.904,12.87542,-0.01196024,1.66202,0.62299
73.804,13.0296,-0.01459052,1.7648,0.62287
76.704,13.17826,-0.01126924,1.84107,0.62273
79.604,13.32236,-0.01203657,1.95058,0.62258
82.504,13.46199,-0.01327813,2.04756,0.62242
85.404,13.5982,-0.01158529,2.19443,0.62225
88.304,13.73055,-0.01139523,2.34323,0.62206
91.204,13.8597,-0.0115203,2.45622,0.62187
94.104,13.9856,-0.01292619,2.53178,0.62166
97.004,14.1083,-0.01407097,2.59242,0.62144
99.904,14.2286,-0.01264451,2.68867,0.6212
102.804,14.346,-0.01237721,2.79993,0.62096
105.704,14.46106,-0.01265727,2.94563,0.6207
108.604,14.57422,-0.01280092,3.11427,0.62044
111.504,14.6854,-0.01364666,3.29043,0.62016
114.404,14.79449,-0.01148134,3.45376,0.61987
117.304,14.9017,-0.01282874,3.61725,0.61956
120.204,15.0074,-0.01283056,3.76353,0.61925
123.104,15.1112,-0.01272472,3.86553,0.61893
126.004,15.21367,-0.01130856,3.99056,0.61859
128.904,15.31434,-0.01271957,4.10173,0.61824
131.804,15.4136,-0.01410979,4.22251,0.61789
134.704,15.51171,-0.01404478,4.33428,0.61752
137.604,15.60851,-0.01392709,4.4503,0.61714
140.504,15.70421,-0.01415687,4.56632,0.61675
143.404,15.79899,-0.01283021,4.65737,0.61634
146.304,15.8928,-0.01418628,4.77135,0.61593
149.204,15.98572,-0.01282379,4.9239,0.61551
152.104,16.07771,-0.01283398,4.98229,0.61508
155.004,16.16904,-0.01284245,5.07222,0.61463
157.904,16.25975,-0.01414,5.12517,0.61418
160.804,16.34995,-0.01413997,5.20248,0.61372
163.704,16.43952,-0.01415,5.30222,0.61324
166.604,16.5284,-0.01415,5.36612,0.61276
169.504,16.61683,-0.01415365,5.41204,0.61226
172.404,16.70499,-0.01412552,5.53443,0.61176
175.304,16.79267,-0.01415,5.58654,0.61125
178.204,16.87949,-0.01415893,5.66633,0.61072
181.104,16.96606,-0.0141401,5.71804,0.61019
184.004,17.05184,-0.01545857,5.77714,0.60965
186.904,17.13714,-0.01546001,5.86042,0.60909
189.804,17.222,-0.01659268,5.90609,0.60853
192.704,17.30627,-0.0154601,5.9352,0.60796
195.604,17.3903,-0.01546,5.98942,0.60738
198.504,17.47397,-0.01668189,6.03447,0.60679
201.404,17.55695,-0.01815982,6.05152,0.60619
204.304,17.64001,-0.01678001,6.11397,0.60559
207.204,17.72297,-0.01678,6.11368,0.60497
210.104,17.8053,-0.01706036,6.15798,0.60434
213.004,17.88741,-0.01809,6.19566,0.60371
215.904,17.9693,-0.01746505,6.2293,0.60307
218.804,18.05097,-0.01743002,6.27173,0.60242
221.704,18.13239,-0.01875598,6.33502,0.60176
224.604,18.2135,-0.02023426,6.36495,0.60109
227.504,18.29456,-0.02008362,6.39393,0.60041
230.404,18.37527,-0.02006997,6.42186,0.59973
233.304,18.45587,-0.02134564,6.45781,0.59904
236.204,18.53646,-0.0200651,6.47467,0.59834
239.104,18.6168,-0.0214235,6.5235,0.59763
242.004,18.69688,-0.02129643,6.53727,0.59692
244.904,18.77679,-0.02387293,6.56444,0.59619
247.804,18.8568,-0.02519379,6.56887,0.59546
250.704,18.93646,-0.02688064,6.55146,0.59472
253.604,19.016,-0.02742061,6.60029,0.59398
256.504,19.0955,-0.02931917,6.65576,0.59322
259.404,19.17474,-0.03161724,6.73722,0.59246
262.304,19.25408,-0.03489531,6.80236,0.5917
265.204,19.33338,-0.03972606,6.90165,0.59092
268.104,19.4124,-0.04659621,6.96573,0.59014
271.004,19.49149,-0.05313207,7.04095,0.58935
273.904,19.57054,-0.06128257,7.06772,0.58856
276.804,19.6497,-0.06886814,7.12794,0.58775
279.704,19.72873,-0.0738191,7.1148,0.58694
282.604,19.8077,-0.08399927,7.17225,0.58613
285.504,19.88651,-0.09414244,7.21227,0.58531
288.404,19.96547,-0.10735,7.28965,0.58448
291.304,20.04425,-0.12034,7.32762,0.58365
294.204,20.12319,-0.13727,7.34472,0.58281
297.104,20.20191,-0.16535,7.37514,0.58196
300.004,20.28075,-0.19817,7.99759,0.58111
302.904,20.3597,-0.24558,9.19648,0.58025
305.804,20.43884,-0.30581,10.48173,0.57939
308.704,20.5181,-0.37754,11.71119,0.57852
311.604,20.5977,-0.46346,12.77528,0.57764
314.504,20.67713,-0.56106,13.6322,0.57676
317.404,20.7569,-0.67137,14.2944,0.57587
320.304,20.83654,-0.7911,14.77719,0.57498
323.204,20.91629,-0.91999,14.96776,0.57409
326.104,20.99595,-1.05147,14.85017,0.57319
329.004,21.0757,-1.18128,14.4832,0.57228
331.904,21.15536,-1.30492,13.8889,0.57137
334.804,21.23515,-1.41751,13.16775,0.57045
337.704,21.3149,-1.51689,12.35178,0.56953
340.604,21.3946,-1.609,11.57843,0.5686
343.504,21.4745,-1.69094,10.81508,0.56767
346.404,21.55438,-1.76371,10.07296,0.56674
349.304,21.63401,-1.82928,9.35587,0.5658
352.204,21.714,-1.88596,8.60342,0.56486
355.104,21.79406,-1.93681,7.83499,0.56391
358.004,21.87399,-1.9802,7.05621,0.56296
360.904,21.95416,-2.01888,6.24795,0.562
363.804,22.03445,-2.04796,5.4521,0.56104
366.704,22.11482,-2.07468,4.73713,0.56008
369.604,22.19523,-2.09523,4.16488,0.55911
372.504,22.2759,-2.11105,3.77601,0.55814
375.404,22.35669,-2.12396,3.54516,0.55716
378.304,22.43753,-2.13648,3.48243,0.55618
381.204,22.51861,-2.14471,3.53374,0.5552
384.104,22.59988,-2.15235,3.57507,0.55422
387.004,22.68136,-2.1548,3.60444,0.55323
389.904,22.76295,-2.16018,3.61603,0.55223
392.804,22.8448,-2.16873,3.63577,0.55124
395.704,22.92659,-2.1738,3.65584,0.55024
398.604,23.0088,-2.18242,3.68731,0.54924
401.504,23.09103,-2.18911,3.73565,0.54824
404.404,23.1734,-2.19833,3.77098,0.54723
407.304,23.2559,-2.2068,3.83398,0.54622
410.204,23.33851,-2.21548,3.89148,0.54521
413.104,23.42132,-2.22792,3.98704,0.5442
416.004,23.50415,-2.23942,4.0824,0.54318
418.904,23.58713,-2.25263,4.18056,0.54216
421.804,23.67032,-2.27045,4.26937,0.54114
424.704,23.7538,-2.28582,4.3451,0.54012
427.604,23.83729,-2.30208,4.38207,0.53909
430.504,23.9209,-2.32297,4.37393,0.53806
433.404,24.0046,-2.34437,4.30166,0.53704
436.304,24.08858,-2.36576,4.19444,0.536
439.204,24.1726,-2.38663,4.03031,0.53497
442.104,24.25678,-2.40847,3.87325,0.53394
445.004,24.34111,-2.43131,3.67427,0.5329
447.904,24.42557,-2.45448,3.52675,0.53186
450.804,24.51004,-2.47869,3.40487,0.53082
453.704,24.5948,-2.5046,3.36162,0.52978
456.604,24.67972,-2.53189,3.38079,0.52874
459.504,24.76482,-2.56354,3.53583,0.5277
462.404,24.84989,-2.59501,3.74294,0.52665
465.304,24.9353,-2.6326,4.02254,0.52561
468.204,25.02099,-2.66881,4.29011,0.52456
471.104,25.10685,-2.70688,4.51429,0.52352
474.004,25.19294,-2.74754,4.7753,0.52247
476.904,25.27921,-2.78929,5.06044,0.52142
479.804,25.36571,-2.83066,5.32926,0.52037
482.704,25.45254,-2.86956,5.43048,0.51932
485.604,25.53929,-2.90755,5.46839,0.51827
488.504,25.62624,-2.94559,5.44339,0.51722
491.404,25.71344,-2.9792,5.37725,0.51617
494.304,25.8008,-3.01211,5.30678,0.51511
497.204,25.88835,-3.04148,5.18592,0.51406
500.104,25.97595,-3.07213,5.075,0.51301
503.004,26.0638,-3.09732,4.95462,0.51196
505.904,26.1516,-3.12099,4.81965,0.5109
508.804,26.23981,-3.14355,4.67378,0.50985
511.704,26.3281,-3.16081,4.50413,0.5088
514.604,26.41633,-3.17737,4.38686,0.50774
517.504,26.5046,-3.19205,4.2597,0.50669
520.404,26.5932,-3.20402,4.1731,0.50564
523.304,26.6818,-3.21456,4.09164,0.50459
526.204,26.77063,-3.2203,4.00875,0.50354
529.104,26.85953,-3.22738,3.94811,0.50248
532.004,26.94827,-3.23396,3.889,0.50143
534.904,27.03743,-3.23935,3.83916,0.50038
537.804,27.1266,-3.24215,3.82272,0.49933
540.704,27.21589,-3.24655,3.7965,0.49829
543.604,27.3052,-3.24727,3.77648,0.49724
546.504,27.3947,-3.25169,3.75668,0.49619
549.404,27.4843,-3.25356,3.71963,0.49514
552.304,27.574,-3.25615,3.71914,0.4941
555.204,27.6639,-3.25769,3.67093,0.49305
558.104,27.7538,-3.26046,3.69331,0.49201
561.004,27.844,-3.26272,3.68767,0.49097
563.904,27.93427,-3.26235,3.68196,0.48992
566.804,28.0246,-3.26677,3.6679,0.48888
569.704,28.11518,-3.26742,3.67053,0.48785
572.604,28.20595,-3.26984,3.65172,0.48681
575.504,28.2966,-3.27176,3.62508,0.48577
578.404,28.3875,-3.27434,3.63944,0.48474
581.304,28.47863,-3.27568,3.65421,0.4837
584.204,28.5697,-3.27698,3.69214,0.48267
587.104,28.6611,-3.2783,3.72323,0.48164
590.004,28.7524,-3.27967,3.76955,0.48061
592.904,28.8439,-3.28105,3.84109,0.47958
595.804,28.93548,-3.28235,3.96197,0.47856
598.704,29.02733,-3.28324,4.12657,0.47753
601.604,29.11925,-3.28427,4.31351,0.47651
604.504,29.2113,-3.28765,4.59373,0.47549
607.404,29.30353,-3.29026,4.94563,0.47447
610.304,29.39583,-3.29168,5.40423,0.47345
613.204,29.4881,-3.29446,5.74096,0.47244
616.104,29.58045,-3.29717,5.51201,0.47143
619.004,29.673,-3.29845,4.44251,0.47042
621.904,29.7655,-3.30122,3.70734,0.46941
624.804,29.858,-3.30161,3.37989,0.4684
627.704,29.95069,-3.30506,3.22293,0.46739
630.604,30.0435,-3.30539,3.10462,0.46639
633.504,30.1363,-3.30818,3.01719,0.46539
636.404,30.2293,-3.31071,2.95031,0.46439
639.304,30.32235,-3.31208,2.90172,0.4634
642.204,30.4155,-3.3134,2.85195,0.4624
645.104,30.50869,-3.31559,2.80032,0.46141
648.004,30.6021,-3.3169,2.75887,0.46043
650.904,30.69565,-3.31915,2.72562,0.45944
653.804,30.78913,-3.32086,2.65337,0.45845
656.704,30.88305,-3.32148,2.65344,0.45747
659.604,30.97679,-3.32358,2.57646,0.45649
662.504,31.07061,-3.32491,2.55366,0.45552
665.404,31.16488,-3.32632,2.52885,0.45454
668.304,31.25905,-3.33166,2.49343,0.45357
671.204,31.3534,-3.33172,2.52048,0.4526
674.104,31.44769,-3.33357,2.46794,0.45164
677.004,31.542,-3.33456,2.46998,0.45068
679.904,31.63653,-3.33494,2.50525,0.44972
682.804,31.7309,-3.33588,2.52242,0.44876
685.704,31.82528,-3.33855,2.60905,0.4478
688.604,31.92053,-3.34111,2.68561,0.44685
691.504,32.0154,-3.33972,2.78425,0.4459
694.404,32.11016,-3.34236,2.75532,0.44495
697.304,32.20517,-3.34647,2.7819,0.44401
700.204,32.3001,-3.34816,2.73994,0.44307
703.104,32.39523,-3.35008,2.64828,0.44213
706.004,32.49031,-3.35398,2.58123,0.4412
708.904,32.58559,-3.35663,2.49815,0.44026
711.804,32.68095,-3.357,2.40764,0.43933
714.704,32.77619,-3.3604,2.28284,0.43841
717.604,32.87143,-3.3643,2.13083,0.43749
720.504,32.96714,-3.36715,2.02615,0.43656
723.404,33.06303,-3.36815,1.93791,0.43565
726.304,33.15883,-3.37163,1.83207,0.43473
729.204,33.25459,-3.36688,1.72594,0.43382
731.504,33.332,-3.36889,1.64559,0.4331