File: 01_Data/Straw/STA/N2/30K_min/Straw_STA_N2_30KData_22054_R3.csv
##Temp./Â°C,Time/min,Mass loss(subtr.2)/mg,DSC(subtr.2)/(mW/mg),Sensit./(uV/mW)
48.735,10.00667,0.00527,0.009813816,1.07495
51.735,10.86627,0.003125633,0.16091,1.07363
54.735,11.09225,0.001392141,0.26591,1.07229
57.735,11.26551,0.003571119,0.34804,1.07095
60.735,11.41427,0.003417209,0.41847,1.06959
63.735,11.5494,0.005173232,0.48018,1.06823
66.735,11.6752,0.002193511,0.53491,1.06685
69.735,11.79525,0.00165165,0.585,1.06547
72.735,11.91122,0.002569943,0.63138,1.06407
75.735,12.02379,0.0012454,0.67487,1.06267
78.735,12.13393,0.0008661161,0.71618,1.06125
81.735,12.24258,-0.0007965356,0.75488,1.05983
84.735,12.34877,-0.00163925,0.79456,1.0584
87.735,12.45406,-0.003160715,0.83338,1.05696
90.735,12.55834,-0.005260779,0.86868,1.0555
93.735,12.66138,-0.005352759,0.90016,1.05404
96.735,12.7639,-0.007913839,0.92662,1.05257
99.735,12.8652,-0.009426588,0.94865,1.0511
102.735,12.96673,-0.01119112,0.96468,1.04961
105.735,13.0678,-0.01382322,0.9736,1.04811
108.735,13.1686,-0.01602811,0.98096,1.04661
111.735,13.2689,-0.01776995,0.97641,1.0451
114.735,13.3694,-0.01907978,0.9708,1.04358
117.735,13.46931,-0.02138977,0.96179,1.04205
120.735,13.56865,-0.02073426,0.95398,1.04051
123.735,13.6676,-0.02172006,0.94175,1.03896
126.735,13.7661,-0.0220404,0.93044,1.03741
129.735,13.86449,-0.02369,0.92583,1.03585
132.735,13.9618,-0.02369,0.92161,1.03428
135.735,14.05894,-0.02397875,0.91301,1.0327
138.735,14.1557,-0.02401994,0.90845,1.03111
141.735,14.2519,-0.02401996,0.90472,1.02952
144.735,14.3477,-0.02402,0.90513,1.02792
147.735,14.44319,-0.0253307,0.90994,1.02631
150.735,14.53845,-0.02545849,0.9157,1.02469
153.735,14.633,-0.02533034,0.92267,1.02307
156.735,14.7278,-0.02533,0.93187,1.02144
159.735,14.8225,-0.02533027,0.94104,1.0198
162.735,14.91656,-0.02665001,0.95093,1.01815
165.735,15.0107,-0.02631999,0.96127,1.0165
168.735,15.10436,-0.02767577,0.97128,1.01484
171.735,15.198,-0.02843604,0.98356,1.01317
174.735,15.29139,-0.0289603,0.99095,1.0115
177.735,15.3845,-0.02797,1.00291,1.00982
180.735,15.47735,-0.02797,1.01317,1.00813
183.735,15.5697,-0.02994075,1.02438,1.00644
186.735,15.66189,-0.02993999,1.03323,1.00473
189.735,15.7539,-0.03125995,1.0395,1.00303
192.735,15.84586,-0.03258395,1.04882,1.00131
195.735,15.9375,-0.03324,1.05568,0.99959
198.735,16.02907,-0.03379935,1.06136,0.99787
201.735,16.1204,-0.03586988,1.06859,0.99613
204.735,16.21153,-0.03719105,1.07057,0.99439
207.735,16.30304,-0.03969752,1.07612,0.99265
210.735,16.3943,-0.04123519,1.07668,0.9909
213.735,16.48537,-0.04569807,1.07571,0.98914
216.735,16.57633,-0.04854334,1.07246,0.98737
219.735,16.66753,-0.05333515,1.07199,0.9856
222.735,16.75856,-0.05885082,1.07389,0.98383
225.735,16.84933,-0.064289,1.07642,0.98205
228.735,16.94021,-0.07229552,1.08081,0.98026
231.735,17.03095,-0.08146257,1.08979,0.97847
234.735,17.12174,-0.09298049,1.09748,0.97667
237.735,17.21256,-0.10157,1.1121,0.97486
240.735,17.30311,-0.11499,1.12544,0.97305
243.735,17.3936,-0.12878,1.1398,0.97124
246.735,17.48432,-0.14311,1.15397,0.96942
249.735,17.57453,-0.15867,1.16406,0.96759
252.735,17.66566,-0.17313,1.17071,0.96576
255.735,17.756,-0.1926,1.17518,0.96393
258.735,17.84655,-0.21014,1.17364,0.96209
261.735,17.93704,-0.23,1.16758,0.96024
264.735,18.02721,-0.2484,1.15469,0.95839
267.735,18.11778,-0.26833,1.13712,0.95653
270.735,18.2082,-0.29132,1.11944,0.95467
273.735,18.29857,-0.31502,1.09557,0.9528
276.735,18.389,-0.3364,1.06974,0.95093
279.735,18.47945,-0.36102,1.04061,0.94905
282.735,18.56961,-0.38842,1.00628,0.94717
285.735,18.66029,-0.4191,0.97334,0.94529
288.735,18.75079,-0.45094,0.93324,0.9434
291.735,18.84131,-0.48682,0.89727,0.9415
294.735,18.9317,-0.52789,0.85342,0.9396
297.735,19.02228,-0.57235,0.80673,0.9377
300.735,19.11295,-0.62289,0.76177,0.93579
303.735,19.20362,-0.67819,0.71835,0.93388
306.735,19.29401,-0.74072,0.67031,0.93196
309.735,19.38449,-0.80871,0.63214,0.93004
312.735,19.4752,-0.88227,0.59077,0.92811
315.735,19.56595,-0.96314,0.55218,0.92618
318.735,19.65656,-1.04981,0.51452,0.92425
321.735,19.74731,-1.14282,0.48069,0.92231
324.735,19.83824,-1.23839,0.45009,0.92037
327.735,19.92875,-1.3404,0.41432,0.91842
330.735,20.0198,-1.44402,0.37805,0.91647
333.735,20.11075,-1.54955,0.33892,0.91451
336.735,20.20188,-1.65777,0.28967,0.91255
339.735,20.2932,-1.76319,0.23219,0.91059
342.735,20.38443,-1.86591,0.16572,0.90862
345.735,20.47564,-1.96279,0.09364654,0.90665
348.735,20.56697,-2.0514,0.04191163,0.90468
351.735,20.6587,-2.12534,0.03165909,0.9027
354.735,20.7503,-2.18254,0.07556476,0.90072
357.735,20.84219,-2.22538,0.14607,0.89873
360.735,20.9343,-2.25484,0.20073,0.89674
363.735,21.026,-2.27748,0.23185,0.89475
366.735,21.1186,-2.2963,0.2402,0.89275
369.735,21.21089,-2.31241,0.24122,0.89075
372.735,21.30292,-2.3272,0.22889,0.88874
375.735,21.3957,-2.34085,0.22468,0.88674
378.735,21.48827,-2.35345,0.20817,0.88473
381.735,21.58098,-2.36474,0.19576,0.88271
384.735,21.67359,-2.3756,0.18228,0.88069
387.735,21.76649,-2.38652,0.17131,0.87867
390.735,21.85943,-2.39675,0.15551,0.87665
393.735,21.95228,-2.4077,0.14681,0.87462
396.735,22.0455,-2.41775,0.13898,0.87259
399.735,22.1386,-2.4226,0.12979,0.87055
402.735,22.23176,-2.43573,0.12201,0.86851
405.735,22.32495,-2.44348,0.11667,0.86647
408.735,22.4182,-2.45448,0.11561,0.86443
411.735,22.5117,-2.46137,0.11324,0.86238
414.735,22.60519,-2.46914,0.11718,0.86033
417.735,22.6986,-2.47835,0.12263,0.85827
420.735,22.7926,-2.48646,0.12616,0.85622
423.735,22.8864,-2.49358,0.13324,0.85416
426.735,22.9803,-2.50107,0.14259,0.85209
429.735,23.0745,-2.50874,0.15345,0.85003
432.735,23.16856,-2.51651,0.1618,0.84796
435.735,23.26292,-2.52461,0.17271,0.84589
438.735,23.3572,-2.53177,0.18576,0.84381
441.735,23.45159,-2.53929,0.1933,0.84173
444.735,23.5462,-2.54693,0.20423,0.83965
447.735,23.64104,-2.55328,0.21412,0.83757
450.735,23.73575,-2.55842,0.22585,0.83548
453.735,23.83064,-2.56466,0.23196,0.83339
456.735,23.92556,-2.57132,0.24141,0.8313
459.735,24.02066,-2.57776,0.24865,0.8292
462.735,24.11572,-2.5822,0.25488,0.8271
465.735,24.21092,-2.58843,0.2613,0.825
468.735,24.30632,-2.59348,0.26699,0.8229
471.735,24.40156,-2.6006,0.27137,0.82079
474.735,24.49706,-2.60572,0.27397,0.81868
477.735,24.5924,-2.61043,0.27512,0.81657
480.735,24.68798,-2.61506,0.28067,0.81446
483.735,24.7837,-2.62105,0.2803,0.81234
486.735,24.87939,-2.62436,0.28431,0.81022
489.735,24.97525,-2.62772,0.28414,0.8081
492.735,25.07111,-2.63456,0.28769,0.80597
495.735,25.16704,-2.63689,0.28733,0.80385
498.735,25.26296,-2.64087,0.28783,0.80172
501.735,25.35898,-2.64678,0.28982,0.79959
504.735,25.45514,-2.65069,0.29075,0.79745
507.735,25.5514,-2.65582,0.2906,0.79531
510.735,25.6476,-2.65964,0.29132,0.79317
513.735,25.7439,-2.66357,0.29182,0.79103
516.735,25.84025,-2.66811,0.29362,0.78889
519.735,25.9365,-2.67282,0.29378,0.78674
522.735,26.03311,-2.67413,0.2912,0.78459
525.735,26.12959,-2.67836,0.29087,0.78244
528.735,26.22632,-2.68291,0.29497,0.78029
531.735,26.3231,-2.68572,0.29408,0.77813
534.735,26.42,-2.68972,0.29472,0.77597
537.735,26.51693,-2.69323,0.29646,0.77381
540.735,26.61403,-2.69647,0.29789,0.77165
543.735,26.71097,-2.69948,0.29995,0.76948
546.735,26.80844,-2.70159,0.30348,0.76732
549.735,26.9056,-2.70408,0.3103,0.76515
552.735,27.0028,-2.70713,0.3196,0.76297
555.735,27.1003,-2.70859,0.32726,0.7608
558.735,27.1974,-2.7099,0.33059,0.75862
561.735,27.295,-2.71254,0.33799,0.75645
564.735,27.39266,-2.71385,0.34754,0.75427
567.735,27.4902,-2.71639,0.34833,0.75208
570.735,27.588,-2.7178,0.35059,0.7499
573.735,27.68562,-2.7178,0.35363,0.74771
576.735,27.7835,-2.71973,0.35501,0.74552
579.735,27.8812,-2.7217,0.35644,0.74333
582.735,27.9793,-2.72176,0.35628,0.74114
585.735,28.0773,-2.72437,0.35603,0.73895
588.735,28.1754,-2.7257,0.35424,0.73675
591.735,28.2731,-2.72701,0.3532,0.73455
594.735,28.3719,-2.72955,0.35224,0.73235
597.735,28.46997,-2.73125,0.3481,0.73015
600.735,28.5685,-2.73195,0.34775,0.72795
603.735,28.6669,-2.73326,0.34491,0.72574
606.735,28.7651,-2.73691,0.3446,0.72353
609.735,28.86373,-2.7382,0.33703,0.72132
612.735,28.9623,-2.73952,0.33659,0.71911
615.735,29.0609,-2.73926,0.33071,0.7169
618.735,29.1594,-2.74084,0.32945,0.71469
621.735,29.25824,-2.74083,0.32609,0.71247
624.735,29.35687,-2.74084,0.32388,0.71025
627.735,29.4553,-2.7428,0.32655,0.70803
630.735,29.5542,-2.74413,0.32125,0.70581
633.735,29.65288,-2.7461,0.31734,0.70359
636.735,29.75191,-2.74601,0.31761,0.70136
639.735,29.85075,-2.7461,0.31117,0.69914
642.735,29.94955,-2.74681,0.30756,0.69691
645.735,30.0488,-2.74875,0.29995,0.69468
648.735,30.1475,-2.74971,0.29368,0.69245
651.735,30.24672,-2.75005,0.28987,0.69022
654.735,30.34579,-2.75136,0.28707,0.68798
657.735,30.44486,-2.75312,0.28392,0.68575
660.735,30.5442,-2.75443,0.28005,0.68351
663.735,30.6434,-2.75597,0.27868,0.68127
666.735,30.7424,-2.75597,0.2785,0.67903
669.735,30.84173,-2.75725,0.27376,0.67679
672.735,30.94087,-2.75729,0.27096,0.67455
675.735,31.0401,-2.75861,0.26956,0.67231
678.735,31.13921,-2.75893,0.26677,0.67006
681.735,31.23845,-2.76025,0.2649,0.66782
684.735,31.33789,-2.76093,0.26248,0.66557
687.735,31.43712,-2.76157,0.26213,0.66332
690.735,31.5365,-2.76288,0.26141,0.66107
693.735,31.63578,-2.76561,0.26194,0.65882
696.735,31.73503,-2.76607,0.25687,0.65657
699.735,31.8347,-2.7642,0.25752,0.65432
702.735,31.93422,-2.76651,0.25855,0.65206
705.735,32.03372,-2.7665,0.25606,0.64981
708.735,32.13327,-2.76782,0.2557,0.64755
711.735,32.23314,-2.76782,0.25281,0.64529
714.735,32.33282,-2.76913,0.25088,0.64303
717.735,32.4328,-2.76946,0.24961,0.64078
720.735,32.53264,-2.77112,0.24857,0.63852
723.735,32.6327,-2.7711,0.24631,0.63626
726.735,32.7327,-2.77242,0.24657,0.63399
729.735,32.83302,-2.77242,0.24032,0.63173
732.735,32.933,-2.77636,0.24103,0.62947
735.735,33.03322,-2.77637,0.24182,0.6272
738.735,33.13367,-2.77769,0.2436,0.62494
741.735,33.234,-2.77901,0.24272,0.62267
744.635,33.33103,-2.77769,0.24378,0.62048