File: 01_Data/Straw/STA/N2/30K_min/Straw_STA_N2_30KData_220428_R1.csv
##Temp./Â°C,Time/min,Mass loss(subtr.2)/mg,DSC(subtr.2)/(mW/mg),Sensit./(uV/mW)
48.571,10.01,-0.02029,0.00585501,1.07503
51.571,10.86561,-0.02001153,0.15508,1.0737
54.571,11.0931,-0.01739044,0.25543,1.07237
57.571,11.26701,-0.02174873,0.33729,1.07102
60.571,11.41596,-0.02234799,0.40579,1.06967
63.571,11.5517,-0.02304133,0.46374,1.0683
66.571,11.67788,-0.02244845,0.51259,1.06693
69.571,11.7982,-0.02239381,0.56136,1.06554
72.571,11.9138,-0.02355218,0.60428,1.06415
75.571,12.02685,-0.02406349,0.64237,1.06274
78.571,12.1371,-0.02692931,0.68082,1.06133
81.571,12.24547,-0.02547059,0.71638,1.05991
84.571,12.35188,-0.02679917,0.75232,1.05848
87.571,12.45728,-0.02924805,0.78592,1.05703
90.571,12.56072,-0.02943427,0.82157,1.05558
93.571,12.66405,-0.03263885,0.85207,1.05412
96.571,12.7665,-0.036145,0.88032,1.05266
99.571,12.86811,-0.03500042,0.90386,1.05118
102.571,12.96932,-0.03367319,0.9218,1.04969
105.571,13.0703,-0.03499,0.93277,1.0482
108.571,13.17115,-0.03630263,0.94177,1.04669
111.571,13.2714,-0.04027011,0.94192,1.04518
114.571,13.37154,-0.04157636,0.93925,1.04366
117.571,13.47149,-0.04418528,0.93103,1.04213
120.571,13.57078,-0.04420076,0.92371,1.04059
123.571,13.6699,-0.04584781,0.914,1.03905
126.571,13.76857,-0.04677054,0.90581,1.03749
129.571,13.8666,-0.04552156,0.89899,1.03593
132.571,13.9641,-0.04782072,0.89339,1.03436
135.571,14.0613,-0.04883059,0.88806,1.03279
138.571,14.1581,-0.04899527,0.88258,1.0312
141.571,14.2544,-0.05011998,0.87661,1.02961
144.571,14.35017,-0.05242711,0.87907,1.02801
147.571,14.4458,-0.05115511,0.88384,1.0264
150.571,14.54075,-0.05013346,0.88823,1.02478
153.571,14.6357,-0.05084045,0.89749,1.02316
156.571,14.7301,-0.05078,0.90633,1.02153
159.571,14.8248,-0.05076739,0.91316,1.01989
162.571,14.9189,-0.04946314,0.92429,1.01824
165.571,15.01281,-0.04815894,0.93482,1.01659
168.571,15.1067,-0.04684137,0.9432,1.01493
171.571,15.19995,-0.04947065,0.9568,1.01326
174.571,15.2932,-0.05353419,0.96926,1.01159
177.571,15.38636,-0.05474409,0.97944,1.00991
180.571,15.479,-0.05617607,0.98724,1.00822
183.571,15.57129,-0.05615958,0.9992,1.00653
186.571,15.66365,-0.05625814,1.0073,1.00483
189.571,15.7557,-0.05746918,1.01448,1.00312
192.571,15.84746,-0.05689179,1.02225,1.00141
195.571,15.939,-0.05742082,1.02756,0.99969
198.571,16.03042,-0.06048946,1.03504,0.99796
201.571,16.1215,-0.06378748,1.04226,0.99623
204.571,16.21296,-0.06816672,1.04947,0.99449
207.571,16.30431,-0.069345,1.05027,0.99274
210.571,16.39528,-0.07226505,1.05548,0.99099
213.571,16.48643,-0.073866,1.05322,0.98923
216.571,16.57753,-0.08027847,1.05543,0.98747
219.571,16.66842,-0.08569212,1.05479,0.9857
222.571,16.7594,-0.08963976,1.05313,0.98393
225.571,16.85011,-0.09334461,1.05472,0.98214
228.571,16.94096,-0.10251,1.05915,0.98036
231.571,17.0316,-0.11235,1.06474,0.97857
234.571,17.12239,-0.12348,1.0737,0.97677
237.571,17.21301,-0.13108,1.08523,0.97496
240.571,17.30359,-0.13994,1.10118,0.97315
243.571,17.39397,-0.15109,1.1144,0.97134
246.571,17.48475,-0.16556,1.12808,0.96952
249.571,17.57518,-0.18576,1.13895,0.96769
252.571,17.6658,-0.20231,1.14778,0.96586
255.571,17.75591,-0.21796,1.14944,0.96403
258.571,17.84682,-0.23757,1.15235,0.96219
261.571,17.9371,-0.25643,1.14581,0.96034
264.571,18.02736,-0.27504,1.13475,0.95849
267.571,18.11776,-0.29702,1.11684,0.95663
270.571,18.20809,-0.31915,1.0967,0.95477
273.571,18.2985,-0.34235,1.07321,0.9529
276.571,18.38898,-0.36615,1.04452,0.95103
279.571,18.4793,-0.39082,1.01212,0.94916
282.571,18.5697,-0.41868,0.98011,0.94728
285.571,18.66004,-0.44808,0.94338,0.94539
288.571,18.7504,-0.48157,0.90471,0.9435
291.571,18.84091,-0.5163,0.86187,0.94161
294.571,18.93117,-0.5557,0.81876,0.93971
297.571,19.0218,-0.59928,0.77039,0.9378
300.571,19.11221,-0.6495,0.72403,0.93589
303.571,19.20265,-0.70542,0.67547,0.93398
306.571,19.29325,-0.76976,0.62845,0.93206
309.571,19.38363,-0.83556,0.58384,0.93014
312.571,19.47406,-0.90864,0.53811,0.92822
315.571,19.5648,-0.99121,0.50087,0.92629
318.571,19.65521,-1.0731,0.4616,0.92435
321.571,19.74595,-1.16307,0.42946,0.92241
324.571,19.8367,-1.26382,0.39804,0.92047
327.571,19.92744,-1.36562,0.36586,0.91852
330.571,20.01849,-1.46929,0.33065,0.91657
333.571,20.10951,-1.57446,0.28892,0.91462
336.571,20.2002,-1.68022,0.24125,0.91266
339.571,20.2914,-1.78462,0.1877,0.9107
342.571,20.38281,-1.88918,0.11839,0.90873
345.571,20.47418,-1.99004,0.0496514,0.90676
348.571,20.56565,-2.07701,-0.000965781,0.90479
351.571,20.65689,-2.14668,-0.00870983,0.90281
354.571,20.74881,-2.20264,0.04441852,0.90082
357.571,20.84076,-2.24846,0.12146,0.89884
360.571,20.93284,-2.27722,0.1848,0.89685
363.571,21.025,-2.30008,0.21586,0.89486
366.571,21.11732,-2.3199,0.22621,0.89286
369.571,21.20974,-2.33386,0.23014,0.89086
372.571,21.3022,-2.34959,0.22158,0.88885
375.571,21.39495,-2.36134,0.2103,0.88685
378.571,21.48741,-2.37337,0.19974,0.88484
381.571,21.58028,-2.38856,0.18832,0.88282
384.571,21.6732,-2.40097,0.17594,0.8808
387.571,21.7658,-2.41695,0.16296,0.87878
390.571,21.85902,-2.42923,0.1492,0.87676
393.571,21.95202,-2.4341,0.13926,0.87473
396.571,22.04526,-2.43972,0.12526,0.8727
399.571,22.13835,-2.45004,0.11684,0.87066
402.571,22.23165,-2.45966,0.10891,0.86862
405.571,22.3251,-2.46932,0.10219,0.86658
408.571,22.41866,-2.47942,0.09917219,0.86454
411.571,22.51215,-2.48664,0.10069,0.86249
414.571,22.60589,-2.49671,0.09812176,0.86044
417.571,22.69978,-2.50368,0.10085,0.85839
420.571,22.79345,-2.51168,0.10786,0.85633
423.571,22.88746,-2.51833,0.11277,0.85427
426.571,22.98142,-2.52643,0.12542,0.85221
429.571,23.07551,-2.53427,0.1324,0.85014
432.571,23.1694,-2.53972,0.14587,0.84807
435.571,23.2637,-2.54654,0.15445,0.846
438.571,23.35816,-2.55622,0.16432,0.84392
441.571,23.4526,-2.56317,0.17321,0.84185
444.571,23.54716,-2.5696,0.18323,0.83976
447.571,23.642,-2.5774,0.19394,0.83768
450.571,23.7366,-2.5824,0.20325,0.83559
453.571,23.83149,-2.58914,0.20902,0.8335
456.571,23.9264,-2.594,0.21594,0.83141
459.571,24.02092,-2.60316,0.22373,0.82932
462.571,24.11617,-2.609,0.22947,0.82722
465.571,24.21124,-2.61475,0.23362,0.82512
468.571,24.30635,-2.62375,0.24014,0.82301
471.571,24.40149,-2.62913,0.24582,0.82091
474.571,24.49687,-2.62983,0.24768,0.8188
477.571,24.5922,-2.63407,0.24776,0.81669
480.571,24.68761,-2.63989,0.25073,0.81457
483.571,24.7833,-2.64679,0.25466,0.81246
486.571,24.87872,-2.65023,0.25436,0.81034
489.571,24.97435,-2.65254,0.25539,0.80822
492.571,25.07006,-2.65693,0.25627,0.80609
495.571,25.16574,-2.6609,0.25745,0.80396
498.571,25.26182,-2.66901,0.26101,0.80183
501.571,25.3577,-2.67698,0.26175,0.7997
504.571,25.45361,-2.67905,0.26488,0.79757
507.571,25.54963,-2.68415,0.26673,0.79543
510.571,25.64591,-2.68834,0.26856,0.79329
513.571,25.74202,-2.69414,0.26849,0.79115
516.571,25.83846,-2.69863,0.27032,0.78901
519.571,25.9346,-2.7004,0.2715,0.78686
522.571,26.03122,-2.70397,0.27246,0.78471
525.571,26.12769,-2.70619,0.27067,0.78256
528.571,26.2244,-2.70941,0.27238,0.7804
531.571,26.32095,-2.71055,0.27006,0.77825
534.571,26.4178,-2.71386,0.26897,0.77609
537.571,26.51469,-2.71626,0.27386,0.77393
540.571,26.61151,-2.72022,0.27533,0.77177
543.571,26.70845,-2.72288,0.2799,0.7696
546.571,26.8055,-2.7257,0.28525,0.76743
549.571,26.9022,-2.72844,0.28883,0.76527
552.571,26.9994,-2.72859,0.29728,0.76309
555.571,27.0967,-2.72996,0.30444,0.76092
558.571,27.194,-2.73166,0.31029,0.75874
561.571,27.2911,-2.73845,0.32113,0.75657
564.571,27.38865,-2.74245,0.3288,0.75439
567.571,27.48606,-2.744,0.33275,0.7522
570.571,27.5838,-2.7479,0.33962,0.75002
573.571,27.68133,-2.7494,0.34164,0.74783
576.571,27.7791,-2.74618,0.34468,0.74564
579.571,27.8768,-2.74502,0.3451,0.74345
582.571,27.9745,-2.74745,0.34505,0.74126
585.571,28.0724,-2.75351,0.35023,0.73907
588.571,28.1704,-2.75552,0.34863,0.73687
591.571,28.2684,-2.75374,0.34784,0.73467
594.571,28.36676,-2.75655,0.34909,0.73247
597.571,28.4649,-2.75695,0.34154,0.73027
600.571,28.5631,-2.75948,0.3413,0.72807
603.571,28.6612,-2.76288,0.34266,0.72586
606.571,28.7598,-2.76495,0.34006,0.72365
609.571,28.8582,-2.76595,0.33794,0.72145
612.571,28.95648,-2.76604,0.33431,0.71923
615.571,29.05485,-2.76705,0.32971,0.71702
618.571,29.15336,-2.76836,0.32872,0.71481
621.571,29.25187,-2.76837,0.32695,0.71259
624.571,29.3506,-2.771,0.32739,0.71037
627.571,29.44908,-2.77232,0.32772,0.70815
630.571,29.54768,-2.7738,0.32545,0.70593
633.571,29.6462,-2.77627,0.32314,0.70371
636.571,29.74496,-2.77883,0.32328,0.70148
639.571,29.8437,-2.78155,0.32245,0.69926
642.571,29.94217,-2.78417,0.32049,0.69703
645.571,30.0414,-2.78686,0.31635,0.6948
648.571,30.14007,-2.79074,0.31561,0.69257
651.571,30.23923,-2.78489,0.31034,0.69034
654.571,30.33826,-2.78132,0.30531,0.68811
657.571,30.43729,-2.78286,0.29947,0.68587
660.571,30.5365,-2.79119,0.30075,0.68363
663.571,30.6357,-2.79334,0.29309,0.6814
666.571,30.7348,-2.78878,0.28679,0.67916
669.571,30.8338,-2.79099,0.28224,0.67692
672.571,30.9331,-2.79272,0.27297,0.67467
675.571,31.0321,-2.79007,0.26933,0.67243
678.571,31.13099,-2.79007,0.26384,0.67019
681.571,31.2305,-2.79042,0.25415,0.66794
684.571,31.33,-2.79053,0.25357,0.66569
687.571,31.42932,-2.79316,0.24274,0.66344
690.571,31.5289,-2.79712,0.23937,0.66119
693.571,31.6284,-2.8017,0.23803,0.65894
696.571,31.7279,-2.80265,0.23186,0.65669
699.571,31.82749,-2.80069,0.23265,0.65444
702.571,31.9272,-2.79919,0.22367,0.65218
705.571,32.02691,-2.79921,0.21994,0.64993
708.571,32.12652,-2.80116,0.21685,0.64767
711.571,32.22636,-2.8005,0.20877,0.64542
714.571,32.32625,-2.8005,0.20945,0.64316
717.571,32.42606,-2.80323,0.20935,0.6409
720.571,32.5259,-2.80732,0.20834,0.63864
723.571,32.62578,-2.80762,0.20174,0.63638
726.571,32.7256,-2.80601,0.20006,0.63412
729.571,32.8255,-2.80661,0.19393,0.63185
732.571,32.92545,-2.80765,0.19041,0.62959
735.571,33.0254,-2.80607,0.18816,0.62733
738.571,33.12543,-2.80478,0.18702,0.62506
741.571,33.2252,-2.80394,0.18023,0.6228
744.571,33.32806,-2.8061,0.18355,0.62053
744.771,33.33282,-2.8061,0.18285,0.62038