File: 01_Data/Cedar_Shingle/MCC/Cedar_Single_MCC_30K_min_211214_R1.txt
Sample ID:	C:\MCC\MCC Cal\Test\Cedar_Single_MCC_30K_min_211214_R1.txt
Sample Weight (mg):	4.66
Heating Rate (C/s):	0.5
Combustor Temp (C):	900
N2 Flow Rate (cc/min):	80
O2 Flow Rate (cc/min):	20
Calibration File:	C:\MCC\MCC Cal\Coeff1 JN10440_30_210304.txt.txt
T Correction Coefficients:	0	1.024463	0
Time Shift (s):	14
*
Time (s)	Temperature (C)	N2 flow rate (cc/min)	O2 flow rate (cc/min)	Flow Rate (cc/min)	Oxygen (%)	HRR (W/g)	Heating rate (C/s)
0.000	109.110	80.005	19.994	103.013	19.803	0.123	-0.040
8.001	109.164	80.005	19.993	103.014	19.802	0.193	-0.007
16.000	109.176	80.005	19.996	103.071	19.796	0.588	0.038
24.000	109.327	80.005	19.993	103.126	19.788	1.096	0.004
32.001	109.768	80.006	19.993	103.173	19.778	1.820	0.083
40.001	110.713	80.005	19.995	103.221	19.766	2.642	0.166
48.001	111.971	80.005	19.994	103.249	19.758	3.174	0.199
56.000	113.731	80.007	19.994	103.281	19.755	3.393	0.206
64.000	115.978	80.006	19.994	103.286	19.750	3.748	0.308
72.000	118.581	80.005	19.995	103.298	19.750	3.782	0.336
80.001	121.430	80.004	19.995	103.290	19.751	3.714	0.397
88.000	124.606	80.007	19.993	103.291	19.747	3.951	0.399
96.000	127.932	80.005	19.994	103.290	19.745	4.089	0.431
104.001	131.396	80.003	19.994	103.288	19.749	3.804	0.461
112.001	134.977	80.006	19.994	103.287	19.749	3.846	0.452
120.000	138.750	80.007	19.995	103.286	19.750	3.780	0.464
128.000	142.642	80.007	19.995	103.286	19.752	3.641	0.507
136.001	146.598	80.008	19.995	103.282	19.747	3.982	0.499
144.000	150.581	80.008	19.995	103.280	19.748	3.929	0.489
152.000	154.549	80.006	19.995	103.283	19.744	4.186	0.486
160.000	158.614	80.005	19.996	103.278	19.742	4.341	0.481
168.000	162.636	80.004	19.996	103.273	19.742	4.335	0.464
176.001	166.745	80.004	19.994	103.267	19.740	4.454	0.513
184.000	170.739	80.005	19.994	103.246	19.738	4.557	0.483
192.000	174.757	80.007	19.994	103.246	19.738	4.588	0.500
200.000	178.696	80.006	19.993	103.244	19.739	4.518	0.471
208.000	182.638	80.005	19.994	103.246	19.735	4.783	0.482
216.000	186.670	80.008	19.994	103.248	19.732	4.989	0.518
224.001	190.599	80.007	19.995	103.237	19.730	5.156	0.477
232.000	194.553	80.003	19.995	103.242	19.727	5.352	0.471
240.000	198.465	80.004	19.996	103.245	19.721	5.759	0.487
248.000	202.375	80.006	19.996	103.235	19.717	6.019	0.486
256.000	206.315	80.005	19.995	103.235	19.710	6.509	0.490
264.000	210.321	80.005	19.997	103.233	19.703	6.978	0.514
272.000	214.288	80.007	19.994	103.237	19.698	7.315	0.494
280.000	218.203	80.006	19.995	103.227	19.691	7.821	0.510
288.001	222.218	80.006	19.994	103.229	19.682	8.453	0.477
296.000	226.163	80.007	19.992	103.235	19.677	8.790	0.484
304.000	230.204	80.008	19.994	103.243	19.672	9.128	0.504
312.000	234.221	80.005	19.995	103.234	19.663	9.744	0.499
320.000	238.220	80.005	19.995	103.231	19.655	10.311	0.471
328.000	242.224	80.005	19.994	103.242	19.648	10.812	0.517
336.000	246.241	80.005	19.994	103.243	19.639	11.458	0.523
344.000	250.283	80.004	19.995	103.246	19.633	11.863	0.501
352.000	254.264	80.006	19.995	103.245	19.619	12.811	0.487
360.000	258.290	80.006	19.994	103.247	19.613	13.261	0.503
368.000	262.288	80.007	19.994	103.260	19.599	14.186	0.500
376.000	266.350	80.008	19.994	103.255	19.583	15.269	0.511
384.000	270.380	80.008	19.994	103.251	19.571	16.117	0.547
392.000	274.373	80.006	19.994	103.269	19.558	16.999	0.517
400.000	278.426	80.006	19.993	103.279	19.545	17.931	0.488
408.000	282.470	80.005	19.994	103.281	19.530	18.989	0.513
416.000	286.450	80.004	19.994	103.285	19.510	20.331	0.488
424.000	290.481	80.005	19.995	103.289	19.492	21.630	0.513
432.000	294.525	80.004	19.995	103.302	19.468	23.252	0.519
440.000	298.574	80.007	19.994	103.303	19.445	24.888	0.540
448.000	302.571	80.005	19.995	103.318	19.413	27.099	0.487
456.000	306.640	80.008	19.995	103.320	19.375	29.699	0.522
464.000	310.622	80.007	19.993	103.335	19.345	31.812	0.513
472.000	314.682	80.005	19.993	103.350	19.301	34.860	0.514
480.000	318.735	80.004	19.993	103.362	19.263	37.498	0.505
488.000	322.776	80.005	19.995	103.366	19.221	40.340	0.530
496.000	326.789	80.005	19.993	103.374	19.180	43.209	0.509
504.000	330.794	80.004	19.994	103.400	19.140	45.967	0.497
512.000	334.882	80.007	19.995	103.400	19.101	48.685	0.516
520.000	338.908	80.006	19.996	103.400	19.068	51.009	0.536
528.000	342.920	80.007	19.995	103.404	19.027	53.807	0.495
536.000	346.941	80.007	19.995	103.435	18.988	56.520	0.526
544.000	350.966	80.007	19.995	103.441	18.945	59.555	0.510
552.000	355.044	80.003	19.993	103.451	18.895	63.009	0.514
560.000	359.096	80.005	19.993	103.477	18.847	66.333	0.523
568.000	363.092	80.005	19.994	103.478	18.803	69.349	0.521
576.000	367.170	80.006	19.995	103.478	18.780	70.943	0.506
584.000	371.199	80.005	19.995	103.450	18.786	70.528	0.495
592.000	375.247	80.006	19.994	103.409	18.841	66.657	0.502
600.000	379.294	80.007	19.996	103.361	18.943	59.585	0.446
608.000	383.368	80.005	19.995	103.288	19.088	49.500	0.498
616.000	387.362	80.005	19.994	103.241	19.261	37.554	0.504
624.000	391.436	80.006	19.993	103.203	19.412	27.117	0.500
632.000	395.538	80.003	19.997	103.170	19.528	19.110	0.534
640.000	399.549	80.005	19.995	103.167	19.594	14.537	0.513
648.000	403.512	80.003	19.994	103.167	19.628	12.170	0.497
656.000	407.523	80.003	19.994	103.166	19.647	10.900	0.502
664.000	411.548	80.004	19.995	103.168	19.655	10.320	0.493
672.000	415.616	80.004	19.994	103.171	19.661	9.877	0.515
680.000	419.622	80.007	19.993	103.169	19.671	9.204	0.496
688.000	423.693	80.006	19.993	103.170	19.674	9.013	0.482
696.001	427.906	80.006	19.994	103.168	19.676	8.863	0.518
704.000	432.084	80.009	19.994	103.164	19.688	8.033	0.554
712.000	436.305	80.004	19.994	103.166	19.686	8.142	0.501
720.000	440.587	80.005	19.996	103.164	19.699	7.299	0.522
728.000	444.783	80.005	19.995	103.162	19.702	7.034	0.553
736.000	448.916	80.005	19.993	103.161	19.710	6.524	0.493
744.000	453.084	80.004	19.994	103.155	19.716	6.070	0.505
752.000	457.214	80.005	19.994	103.163	19.725	5.464	0.529
760.000	461.364	80.006	19.996	103.155	19.731	5.062	0.484
768.000	465.372	80.006	19.997	103.158	19.743	4.256	0.508
776.000	469.298	80.008	19.993	103.142	19.746	4.041	0.520
784.000	473.187	80.008	19.996	103.139	19.752	3.587	0.515
792.000	477.113	80.005	19.995	103.144	19.751	3.694	0.502
800.000	480.966	80.006	19.995	103.143	19.751	3.650	0.476
808.000	484.891	80.005	19.995	103.149	19.755	3.416	0.496
816.000	488.920	80.004	19.997	103.141	19.757	3.286	0.518
824.000	492.940	80.003	19.995	103.157	19.755	3.411	0.485
832.000	497.155	80.004	19.994	103.162	19.757	3.302	0.525
840.000	501.490	80.008	19.993	103.153	19.759	3.148	0.493
848.000	505.770	80.007	19.992	103.162	19.761	2.993	0.535
856.000	510.132	80.006	19.995	103.148	19.761	3.014	0.554
864.000	514.330	80.008	19.994	103.148	19.764	2.799	0.585
872.000	518.730	80.006	19.993	103.149	19.760	3.038	0.507
880.000	523.117	80.005	19.996	103.154	19.761	2.960	0.490
888.000	527.062	80.005	19.994	103.132	19.760	3.074	0.545
896.000	531.252	80.006	19.995	103.138	19.764	2.752	0.508
904.000	535.395	80.005	19.995	103.131	19.765	2.743	0.575
912.000	539.362	80.004	19.997	103.134	19.763	2.875	0.505
920.000	543.340	80.006	19.993	103.131	19.764	2.793	0.458
928.000	547.366	80.005	19.993	103.126	19.765	2.719	0.505
936.000	551.369	80.006	19.994	103.137	19.765	2.710	0.526
944.000	555.440	80.007	19.992	103.129	19.764	2.782	0.520
952.000	559.491	80.007	19.993	103.130	19.765	2.713	0.500
960.001	563.549	80.007	19.994	103.136	19.767	2.561	0.489
968.000	567.666	80.005	19.995	103.133	19.773	2.162	0.523
976.000	571.843	80.006	19.995	103.133	19.770	2.372	0.502
984.000	576.105	80.005	19.995	103.133	19.770	2.390	0.519
992.000	580.310	80.004	19.995	103.140	19.769	2.460	0.562
1000.000	584.491	80.005	19.997	103.141	19.769	2.445	0.502
1008.000	588.719	80.005	19.995	103.135	19.771	2.311	0.524
1016.000	592.860	80.007	19.995	103.131	19.770	2.399	0.525
1024.000	597.038	80.008	19.994	103.127	19.768	2.483	0.546
1032.000	601.090	80.007	19.993	103.130	19.771	2.309	0.526
1040.000	605.151	80.005	19.995	103.127	19.768	2.517	0.482
1048.000	609.222	80.005	19.994	103.127	19.772	2.263	0.513
1056.000	613.278	80.005	19.995	103.128	19.765	2.712	0.516
1064.000	617.389	80.004	19.995	103.134	19.769	2.465	0.519
1072.000	621.421	80.004	19.993	103.132	19.769	2.430	0.508
1080.001	625.505	80.005	19.995	103.130	19.770	2.380	0.512
1088.000	629.574	80.006	19.995	103.124	19.770	2.342	0.515
1096.000	633.687	80.006	19.995	103.123	19.768	2.482	0.541
1104.001	637.754	80.006	19.994	103.125	19.770	2.397	0.528
1112.001	641.852	80.006	19.995	103.125	19.771	2.285	0.529
1120.000	645.889	80.006	19.995	103.125	19.772	2.217	0.513
1128.000	649.975	80.005	19.994	103.123	19.771	2.318	0.519
1136.000	654.109	80.006	19.994	103.128	19.771	2.283	0.531
1144.000	658.127	80.006	19.993	103.123	19.769	2.456	0.507
1152.000	662.144	80.005	19.993	103.127	19.768	2.474	0.477
1160.000	666.244	80.007	19.994	103.118	19.764	2.757	0.504
1168.001	670.365	80.007	19.995	103.124	19.768	2.506	0.493
1176.000	674.456	80.006	19.995	103.125	19.768	2.520	0.894
1184.000	678.531	80.006	19.995	103.125	19.768	2.498	0.536
1192.000	682.626	80.006	19.995	103.123	19.766	2.671	0.532
1200.000	686.643	80.005	19.993	103.123	19.770	2.375	0.484
1208.000	690.818	80.005	19.994	103.126	19.769	2.447	0.496
1216.000	694.955	80.005	19.994	103.122	19.767	2.546	0.518
1224.000	699.066	80.004	19.994	103.119	19.768	2.522	0.500
1232.000	703.215	80.005	19.995	103.120	19.768	2.533	0.545
1240.000	707.328	80.006	19.993	103.120	19.766	2.663	0.515
1248.000	711.322	80.006	19.994	103.123	19.767	2.555	0.515
1256.000	715.353	80.006	19.994	103.118	19.768	2.496	0.510
1264.000	719.388	80.006	19.994	103.119	19.768	2.518	0.479
1272.001	723.460	80.007	19.994	103.098	19.767	2.591	0.521
1280.000	727.511	80.004	19.995	103.111	19.768	2.480	0.522
1288.000	731.528	80.004	19.995	103.119	19.765	2.691	0.500
1296.000	735.601	80.006	19.994	103.126	19.767	2.575	0.527
1304.001	739.611	80.006	19.993	103.120	19.765	2.731	0.508
1312.000	743.637	80.005	19.994	103.122	19.761	2.979	0.487