File: 01_Data/HDPE/HFM/HDPE_Density_Wet_R1.csv
,HDPE_WET_1
Sample Mass [g],125.1
Sample Volume [cm3],128.4
Sample Density [kg/m3],974