File: 01_Data/HDPE/HFM/HDPE_Density_Wet_R2.csv
,HDPE_WET_2
Sample Mass [g],125.1
Sample Volume [cm3],129.0
Sample Density [kg/m3],970