File: 01_Data/HDPE/HFM/HDPE_Density_Wet_R3.csv
,HDPE_WET_3
Sample Mass [g],125.4
Sample Volume [cm3],129.3
Sample Density [kg/m3],970