File: 01_Data/PETG/STA/N2/10K_min/PETG_STA_N2_10KData_210831_R1.csv
##Temp./Â°C,Time/min,Mass loss(subtr.2)/mg,DSC(subtr.2)/(mW/mg),Sensit./(uV/mW)
49.708,10.00917,-0.01382,-0.006533795,1.03585
52.308,12.37323,-0.01730016,0.04466334,1.03571
54.908,13.07437,-0.01722607,0.0681243,1.03555
57.508,13.63171,-0.01811394,0.08487045,1.03536
60.108,14.1182,-0.01934259,0.09650782,1.03513
62.708,14.56052,-0.01931197,0.11024,1.03488
65.308,14.97042,-0.02078467,0.11979,1.0346
67.908,15.35484,-0.02079611,0.12837,1.03429
70.508,15.7196,-0.02226105,0.13842,1.03396
73.108,16.0684,-0.02088737,0.14426,1.03359
75.708,16.4042,-0.0225463,0.14535,1.0332
78.308,16.72831,-0.02369326,0.1478,1.03277
80.908,17.0434,-0.02373921,0.14734,1.03233
83.508,17.34887,-0.02512219,0.14549,1.03185
86.108,17.6475,-0.02518874,0.14454,1.03134
88.708,17.9393,-0.02545305,0.14305,1.03081
91.308,18.22532,-0.02641947,0.1437,1.03025
93.908,18.50514,-0.02521983,0.14154,1.02967
96.508,18.78183,-0.02710206,0.14419,1.02906
99.108,19.05367,-0.02814081,0.1479,1.02842
101.708,19.32299,-0.02726597,0.15019,1.02776
104.308,19.58955,-0.0266605,0.15639,1.02706
106.908,19.85409,-0.02805156,0.16299,1.02635
109.508,20.11564,-0.02860206,0.1695,1.02561
112.108,20.37583,-0.02927826,0.17606,1.02484
114.708,20.6336,-0.02950773,0.18432,1.02405
117.308,20.8901,-0.0294945,0.19161,1.02323
119.908,21.14483,-0.02946339,0.1994,1.02238
122.508,21.39801,-0.02951118,0.20574,1.02152
125.108,21.64888,-0.03016025,0.20918,1.02062
127.708,21.8981,-0.03083265,0.21353,1.01971
130.308,22.14574,-0.02945709,0.21861,1.01877
132.908,22.3914,-0.03079737,0.22387,1.0178
135.508,22.636,-0.03080324,0.22852,1.01682
138.108,22.87965,-0.03115017,0.23298,1.0158
140.708,23.12146,-0.02974012,0.23707,1.01477
143.308,23.36262,-0.03117284,0.23965,1.01371
145.908,23.6025,-0.03211448,0.24014,1.01263
148.508,23.84173,-0.03079528,0.24458,1.01153
151.108,24.0802,-0.03083096,0.2475,1.0104
153.708,24.31857,-0.03213944,0.25177,1.00925
156.308,24.55566,-0.03212988,0.25442,1.00808
158.908,24.79232,-0.03141167,0.25732,1.00689
161.508,25.0289,-0.03344755,0.25921,1.00568
164.108,25.26476,-0.03213998,0.2602,1.00444
166.708,25.5012,-0.03212657,0.26312,1.00319
169.308,25.73705,-0.03081846,0.26588,1.00191
171.908,25.97235,-0.02983151,0.26657,1.00062
174.508,26.20745,-0.03214692,0.27167,0.9993
177.108,26.442,-0.03219532,0.27229,0.99796
179.708,26.67659,-0.02929857,0.27573,0.9966
182.308,26.91077,-0.030208,0.27707,0.99522
184.908,27.14381,-0.0304897,0.28013,0.99383
187.508,27.3773,-0.03180274,0.28226,0.99241
190.108,27.6092,-0.03114997,0.28457,0.99098
192.708,27.84155,-0.03147834,0.28335,0.98952
195.308,28.07392,-0.03279378,0.2902,0.98805
197.908,28.30627,-0.03278999,0.29264,0.98656
200.508,28.5386,-0.03280042,0.29436,0.98505
203.108,28.7698,-0.03343964,0.29738,0.98352
205.708,29.00197,-0.03280225,0.29948,0.98198
208.308,29.23457,-0.03279264,0.30408,0.98041
210.908,29.4664,-0.03412023,0.30826,0.97883
213.508,29.69833,-0.03411,0.31297,0.97724
216.108,29.93045,-0.03411,0.31648,0.97562
218.708,30.16248,-0.03280183,0.32381,0.97399
221.308,30.3951,-0.03412669,0.32953,0.97235
223.908,30.627,-0.03518196,0.33965,0.97068
226.508,30.86008,-0.03377998,0.35036,0.96901
229.108,31.09243,-0.03378997,0.36629,0.96731
231.708,31.32514,-0.03434704,0.37985,0.9656
234.308,31.55752,-0.03477099,0.40271,0.96388
236.908,31.79053,-0.03513366,0.43061,0.96214
239.508,32.02369,-0.03271747,0.46848,0.96038
242.108,32.2569,-0.03471357,0.52731,0.95862
244.708,32.49031,-0.03532409,0.59753,0.95683
247.308,32.72282,-0.0353096,0.69623,0.95504
249.908,32.9576,-0.03531966,0.80971,0.95323
252.508,33.19133,-0.03366605,0.88272,0.9514
255.108,33.4259,-0.03511714,0.75454,0.94956
257.708,33.65911,-0.03598009,0.527,0.94771
260.308,33.89227,-0.03597987,0.42203,0.94585
262.908,34.125,-0.03597999,0.37977,0.94397
265.508,34.35841,-0.03466,0.36073,0.94209
268.108,34.59253,-0.0353199,0.35016,0.94019
270.708,34.8266,-0.03401,0.34824,0.93827
273.308,35.06077,-0.03598035,0.34557,0.93635
275.908,35.29487,-0.03598,0.34483,0.93442
278.508,35.52945,-0.03399853,0.34375,0.93247
281.108,35.76415,-0.03466517,0.34444,0.93051
283.708,35.99922,-0.03466,0.34545,0.92854
286.308,36.2339,-0.03597,0.34342,0.92656
288.908,36.4694,-0.03467259,0.34206,0.92458
291.508,36.70482,-0.03496832,0.34499,0.92258
294.108,36.94123,-0.03444,0.34606,0.92057
296.708,37.1777,-0.03443832,0.34728,0.91855
299.308,37.41455,-0.03467853,0.34606,0.91652
301.908,37.6511,-0.0360901,0.34528,0.91449
304.508,37.88796,-0.03609213,0.34668,0.91244
307.108,38.125,-0.03608751,0.34636,0.91039
309.708,38.36182,-0.03640899,0.34805,0.90832
312.308,38.59946,-0.03640985,0.34895,0.90625
314.908,38.83665,-0.03525135,0.34612,0.90417
317.508,39.07451,-0.03630971,0.34668,0.90209
320.108,39.31207,-0.0349867,0.35023,0.89999
322.708,39.5497,-0.03494047,0.34812,0.89789
325.308,39.78816,-0.03487998,0.35224,0.89578
327.908,40.0267,-0.03455001,0.35282,0.89367
330.508,40.26495,-0.03389,0.35017,0.89155
333.108,40.50374,-0.03546263,0.35321,0.88942
335.708,40.74277,-0.03421902,0.35325,0.88728
338.308,40.9822,-0.03489,0.35685,0.88514
340.908,41.222,-0.03587,0.35729,0.883
343.508,41.46242,-0.03587421,0.36112,0.88084
346.108,41.70255,-0.03519396,0.36225,0.87869
348.708,41.94277,-0.03652,0.36278,0.87652
351.308,42.1834,-0.03781416,0.36073,0.87436
353.908,42.42398,-0.03784664,0.36296,0.87218
356.508,42.66489,-0.03828276,0.36566,0.87001
359.108,42.90587,-0.03784,0.36836,0.86783
361.708,43.1475,-0.04048118,0.37175,0.86564
364.308,43.3894,-0.04025837,0.37361,0.86345
366.908,43.63135,-0.0418919,0.38138,0.86126
369.508,43.87318,-0.04453,0.38899,0.85906
372.108,44.1154,-0.04718757,0.39649,0.85686
374.708,44.35714,-0.0491342,0.40796,0.85466
377.308,44.60034,-0.05309005,0.41653,0.85246
379.908,44.8431,-0.0576237,0.43062,0.85025
382.508,45.0866,-0.06298008,0.43758,0.84804
385.108,45.33109,-0.0706296,0.43735,0.84583
387.708,45.57592,-0.0804572,0.45208,0.84361
390.308,45.82113,-0.09324262,0.46594,0.8414
392.908,46.0662,-0.11311,0.48091,0.83918
395.508,46.3106,-0.13093,0.49437,0.83696
398.108,46.55601,-0.15124,0.51215,0.83474
400.708,46.80062,-0.17089,0.53332,0.83252
403.308,47.046,-0.19983,0.55696,0.83029
405.908,47.29126,-0.23369,0.58942,0.82807
408.508,47.53774,-0.27339,0.6149,0.82584
411.108,47.78303,-0.31857,0.65569,0.82362
413.708,48.03083,-0.37276,0.68784,0.8214
416.308,48.27697,-0.43695,0.73764,0.81917
418.908,48.5236,-0.51101,0.80094,0.81695
421.508,48.77035,-0.60489,0.87383,0.81472
424.108,49.01766,-0.70909,0.93891,0.8125
426.708,49.265,-0.82795,1.01105,0.81028
429.308,49.51287,-0.96128,1.04449,0.80805
431.908,49.76045,-1.1163,1.12121,0.80583
434.508,50.00813,-1.28296,1.14685,0.80361
437.108,50.25654,-1.46368,1.15588,0.8014
439.708,50.5056,-1.65678,1.16963,0.79918
442.308,50.75397,-1.85516,1.15207,0.79697
444.908,51.00363,-2.05121,1.09747,0.79475
447.508,51.25213,-2.23293,1.00507,0.79254
450.108,51.50023,-2.39245,0.86622,0.79033
452.708,51.74823,-2.52143,0.7121,0.78813
455.308,51.9966,-2.61915,0.55679,0.78592
457.908,52.2455,-2.68766,0.43244,0.78372
460.508,52.49436,-2.73985,0.34348,0.78152
463.108,52.74377,-2.78022,0.27012,0.77933
465.708,52.99335,-2.81197,0.21288,0.77714
468.308,53.2428,-2.83816,0.16016,0.77495
470.908,53.4923,-2.85967,0.11691,0.77277
473.508,53.74208,-2.87924,0.07937957,0.77058
476.108,53.99184,-2.89107,0.04932161,0.76841
478.708,54.24219,-2.90593,0.02885127,0.76623
481.308,54.49221,-2.91459,0.0114606,0.76406
483.908,54.7432,-2.92498,-0.002882937,0.7619
486.508,54.99383,-2.9308,-0.01126847,0.75974
489.108,55.2445,-2.93888,-0.0207574,0.75758
491.708,55.49572,-2.94454,-0.02000987,0.75543
494.308,55.74762,-2.95053,-0.02430355,0.75328
496.908,55.9995,-2.95618,-0.02649889,0.75114
499.508,56.25131,-2.9586,-0.02987521,0.749
502.108,56.50399,-2.96331,-0.03349969,0.74687
504.708,56.75649,-2.96716,-0.03303424,0.74474
507.308,57.0096,-2.97,-0.03478077,0.74262
509.908,57.26269,-2.97429,-0.0343233,0.7405
512.508,57.51556,-2.97754,-0.03443781,0.73839
515.108,57.76875,-2.98149,-0.03990689,0.73629
517.708,58.02248,-2.98376,-0.03864485,0.73419
520.308,58.27669,-2.98379,-0.03290683,0.7321
522.908,58.53091,-2.98646,-0.03403297,0.73001
525.508,58.78447,-2.99047,-0.03323608,0.72793
528.108,59.039,-2.99169,-0.03249937,0.72585
530.708,59.29286,-2.99301,-0.03459289,0.72379
533.308,59.54746,-2.99465,-0.03487594,0.72172
535.908,59.80158,-2.99728,-0.03818205,0.71967
538.508,60.0563,-2.99959,-0.03959698,0.71762
541.108,60.3116,-3.00024,-0.04443562,0.71558
543.708,60.56714,-3.00091,-0.04274964,0.71354
546.308,60.82245,-3.00353,-0.04616581,0.71152
548.908,61.07821,-3.00584,-0.04827632,0.7095
551.508,61.3346,-3.00686,-0.04836178,0.70748
554.108,61.5907,-3.00815,-0.0459138,0.70548
556.708,61.84678,-3.01013,-0.05249699,0.70348
559.308,62.1027,-3.01013,-0.05373459,0.70149
561.908,62.35856,-3.01341,-0.05306849,0.6995
564.508,62.6155,-3.01638,-0.05899329,0.69753
567.108,62.8727,-3.01634,-0.06199024,0.69556
569.708,63.12944,-3.01768,-0.06444832,0.6936
572.308,63.38615,-3.0194,-0.06615477,0.69164
574.908,63.64298,-3.01897,-0.06906998,0.6897
577.508,63.90002,-3.02035,-0.06852377,0.68776
580.108,64.15684,-3.02559,-0.07106861,0.68583
582.708,64.41342,-3.02447,-0.07328857,0.68391
585.308,64.67095,-3.02557,-0.08468977,0.682
587.908,64.9283,-3.02786,-0.08477133,0.6801
590.508,65.18624,-3.02922,-0.0855068,0.6782
593.108,65.4437,-3.03285,-0.08879849,0.67631
595.708,65.70106,-3.03346,-0.08813578,0.67443
598.308,65.95917,-3.03611,-0.08507731,0.67256
600.908,66.21789,-3.03575,-0.08746687,0.6707
603.508,66.47621,-3.03734,-0.08410518,0.66885
606.108,66.73443,-3.04006,-0.08747804,0.667
608.708,66.993,-3.04171,-0.0864329,0.66517
611.308,67.2525,-3.04303,-0.08399476,0.66334
613.908,67.51139,-3.04467,-0.09074262,0.66152
616.508,67.77035,-3.04467,-0.09081282,0.65971
619.108,68.02999,-3.04671,-0.08995849,0.65791
621.708,68.2897,-3.04894,-0.08182161,0.65612
624.308,68.5498,-3.04895,-0.07369126,0.65433
626.908,68.80968,-3.05157,-0.07921027,0.65256
629.508,69.0694,-3.05355,-0.08482355,0.6508
632.108,69.32975,-3.05355,-0.08025829,0.64904
634.708,69.58965,-3.05487,-0.07730169,0.64729
637.308,69.84996,-3.05487,-0.07654715,0.64556
638.708,69.99025,-3.05618,-0.07954132,0.64463