File: 01_Data/PETG/STA/N2/10K_min/PETG_STA_N2_10KData_210901_R2.csv
##Temp./Â°C,Time/min,Mass loss(subtr.2)/mg,DSC(subtr.2)/(mW/mg),Sensit./(uV/mW)
49.239,10.00917,-0.02863,0.02612376,1.03587
51.839,12.32979,-0.03283138,0.08145095,1.03574
54.439,13.03688,-0.03666641,0.10507,1.03558
57.039,13.59312,-0.03657416,0.12201,1.03539
59.639,14.0861,-0.03824908,0.13736,1.03518
62.239,14.5248,-0.03847916,0.14878,1.03493
64.839,14.9367,-0.03869195,0.16066,1.03465
67.439,15.32182,-0.03848638,0.17097,1.03435
70.039,15.6862,-0.04006931,0.17957,1.03402
72.639,16.0343,-0.04134796,0.18756,1.03366
75.239,16.36965,-0.04004652,0.18705,1.03327
77.839,16.6939,-0.04135201,0.18947,1.03285
80.439,17.0077,-0.04137944,0.18794,1.03241
83.039,17.31445,-0.04135973,0.18829,1.03194
85.639,17.61241,-0.04268969,0.18638,1.03144
88.239,17.90361,-0.04268138,0.18554,1.03091
90.839,18.1881,-0.04366029,0.18673,1.03036
93.439,18.46956,-0.04398733,0.18482,1.02978
96.039,18.74709,-0.04402143,0.18842,1.02917
98.639,19.0197,-0.04399001,0.19144,1.02854
101.239,19.28868,-0.04399003,0.19583,1.02788
103.839,19.55487,-0.04407308,0.20325,1.02719
106.439,19.8169,-0.04399213,0.20928,1.02648
109.039,20.08087,-0.04399,0.21627,1.02574
111.639,20.34103,-0.04400113,0.22508,1.02498
114.239,20.59957,-0.04529913,0.23116,1.02419
116.839,20.85576,-0.04518654,0.23888,1.02338
119.439,21.11003,-0.04528389,0.24436,1.02254
122.039,21.36263,-0.04529043,0.25045,1.02167
124.639,21.61269,-0.04395243,0.25666,1.02079
127.239,21.86308,-0.04528979,0.26053,1.01988
129.839,22.11134,-0.0451367,0.2653,1.01894
132.439,22.3578,-0.04530961,0.26915,1.01798
135.039,22.60141,-0.04431652,0.2747,1.017
137.639,22.84577,-0.04529943,0.27894,1.01599
140.239,23.08768,-0.0465779,0.28406,1.01496
142.839,23.32734,-0.04530001,0.28634,1.0139
145.439,23.5683,-0.04663031,0.29042,1.01283
148.039,23.8074,-0.0464692,0.29385,1.01173
150.639,24.0446,-0.04638991,0.29775,1.01061
153.239,24.2826,-0.04530049,0.3011,1.00946
155.839,24.52016,-0.04529788,0.30394,1.0083
158.439,24.7563,-0.04647631,0.30724,1.00711
161.039,24.99269,-0.04532653,0.30896,1.0059
163.639,25.2288,-0.04530927,0.31103,1.00467
166.239,25.46472,-0.04799074,0.3127,1.00342
168.839,25.7001,-0.04661994,0.31655,1.00214
171.439,25.93445,-0.04661911,0.31546,1.00085
174.039,26.16904,-0.04695,0.31928,0.99954
176.639,26.40393,-0.04664353,0.32264,0.9982
179.239,26.63904,-0.04662,0.32595,0.99685
181.839,26.8739,-0.04630201,0.32738,0.99547
184.439,27.10727,-0.04530971,0.33139,0.99408
187.039,27.3403,-0.04597538,0.33284,0.99267
189.639,27.57307,-0.04398382,0.33578,0.99124
192.239,27.8049,-0.0439903,0.33796,0.98979
194.839,28.03742,-0.04461567,0.34037,0.98832
197.439,28.269,-0.04398527,0.34498,0.98683
200.039,28.50125,-0.04494356,0.34998,0.98532
202.639,28.73345,-0.04398987,0.35197,0.9838
205.239,28.9653,-0.04530854,0.35635,0.98226
207.839,29.1974,-0.0453,0.35939,0.9807
210.439,29.42935,-0.04531,0.36268,0.97912
213.039,29.6616,-0.04625625,0.36964,0.97753
215.639,29.894,-0.04529826,0.37355,0.97592
218.239,30.1259,-0.04531,0.38326,0.97429
220.839,30.35786,-0.04531,0.3896,0.97264
223.439,30.58995,-0.04398993,0.39701,0.97099
226.039,30.8222,-0.04529718,0.4069,0.96931
228.639,31.0544,-0.04357206,0.417,0.96762
231.239,31.2868,-0.04531,0.43367,0.96591
233.839,31.51967,-0.04431702,0.45542,0.96419
236.439,31.75246,-0.0453,0.48306,0.96245
239.039,31.9856,-0.0453289,0.52098,0.9607
241.639,32.21867,-0.04531,0.57269,0.95894
244.239,32.45218,-0.04659603,0.64279,0.95716
246.839,32.686,-0.04399118,0.73644,0.95536
249.439,32.9197,-0.04530985,0.84735,0.95355
252.039,33.1541,-0.0448549,0.94568,0.95173
254.639,33.3876,-0.04531,0.87528,0.9499
257.239,33.6205,-0.04398876,0.63835,0.94805
259.839,33.85313,-0.04463776,0.5078,0.94619
262.439,34.08593,-0.04530548,0.44866,0.94431
265.039,34.31897,-0.04498,0.42352,0.94243
267.639,34.55225,-0.04531043,0.41227,0.94053
270.239,34.78632,-0.04563991,0.40754,0.93862
272.839,35.01984,-0.04531001,0.40496,0.9367
275.439,35.25415,-0.04530026,0.4038,0.93476
278.039,35.48855,-0.04498,0.40352,0.93282
280.639,35.723,-0.04398884,0.40578,0.93087
283.239,35.95797,-0.04399,0.40394,0.9289
285.839,36.1936,-0.04399,0.40748,0.92692
288.439,36.42857,-0.04497,0.40805,0.92494
291.039,36.6642,-0.04497017,0.40704,0.92294
293.639,36.89972,-0.04431,0.40701,0.92093
296.239,37.13499,-0.04266416,0.40691,0.91892
298.839,37.37233,-0.04401199,0.40887,0.91689
301.439,37.6088,-0.04267,0.40972,0.91485
304.039,37.845,-0.04266226,0.40953,0.91281
306.639,38.08222,-0.04268002,0.40937,0.91076
309.239,38.31928,-0.04268,0.41134,0.9087
311.839,38.55684,-0.04191673,0.411,0.90663
314.439,38.7943,-0.04135305,0.4122,0.90455
317.039,39.03154,-0.04234002,0.4115,0.90246
319.639,39.26919,-0.0436608,0.41379,0.90037
322.239,39.50721,-0.04168,0.41303,0.89827
324.839,39.74535,-0.04263936,0.41418,0.89616
327.439,39.98373,-0.04268015,0.41614,0.89405
330.039,40.22248,-0.0427756,0.41473,0.89193
332.639,40.4611,-0.04267853,0.41561,0.8898
335.239,40.70061,-0.04268,0.41694,0.88767
337.839,40.9401,-0.04268023,0.41922,0.88553
340.439,41.17975,-0.04366,0.41973,0.88338
343.039,41.41937,-0.0436632,0.42218,0.88123
345.639,41.65951,-0.04365999,0.42341,0.87908
348.239,41.89951,-0.04464439,0.42466,0.87691
350.839,42.13981,-0.04398971,0.42716,0.87475
353.439,42.38067,-0.04593001,0.42892,0.87258
356.039,42.62182,-0.04498029,0.43055,0.8704
358.639,42.86286,-0.04597032,0.43235,0.86822
361.239,43.10432,-0.04748225,0.43703,0.86604
363.839,43.34532,-0.04821121,0.44074,0.86385
366.439,43.58736,-0.04735198,0.44204,0.86166
369.039,43.82955,-0.04727953,0.44749,0.85946
371.639,44.07202,-0.05123051,0.4517,0.85726
374.239,44.31388,-0.05385656,0.45892,0.85506
376.839,44.5568,-0.06258753,0.47076,0.85286
379.439,44.8001,-0.06933031,0.48505,0.85065
382.039,45.04472,-0.07365029,0.49964,0.84844
384.639,45.28822,-0.07744524,0.50418,0.84623
387.239,45.5332,-0.08599515,0.50431,0.84401
389.839,45.7778,-0.10076,0.50894,0.8418
392.439,46.02254,-0.11461,0.52416,0.83958
395.039,46.26717,-0.13422,0.54239,0.83736
397.639,46.51149,-0.15854,0.55552,0.83514
400.239,46.7567,-0.18507,0.57556,0.83292
402.839,47.0015,-0.21667,0.60306,0.83069
405.439,47.24648,-0.25425,0.63608,0.82847
408.039,47.4923,-0.29871,0.65965,0.82625
410.639,47.73751,-0.34896,0.69356,0.82402
413.239,47.98359,-0.40458,0.73512,0.8218
415.839,48.22976,-0.47429,0.78634,0.81957
418.439,48.47575,-0.55376,0.84552,0.81735
421.039,48.72254,-0.64778,0.91882,0.81512
423.639,48.96985,-0.75677,0.97356,0.8129
426.239,49.2171,-0.88088,1.03516,0.81068
428.839,49.4651,-1.02607,1.1144,0.80846
431.439,49.7133,-1.19301,1.20124,0.80623
434.039,49.9617,-1.37323,1.20613,0.80401
436.639,50.20944,-1.57014,1.21848,0.8018
439.239,50.45818,-1.77903,1.25309,0.79958
441.839,50.70713,-1.99505,1.25411,0.79736
444.439,50.9572,-2.21433,1.22505,0.79515
447.039,51.20773,-2.4289,1.16146,0.79294
449.639,51.45735,-2.64224,1.05534,0.79073
452.239,51.70623,-2.82804,0.90694,0.78852
454.839,51.9534,-2.98463,0.72799,0.78632
457.439,52.20016,-3.10132,0.55447,0.78412
460.039,52.4471,-3.18515,0.42142,0.78192
462.639,52.69465,-3.2467,0.33347,0.77973
465.239,52.943,-3.29518,0.26164,0.77753
467.839,53.1918,-3.33146,0.20064,0.77534
470.439,53.44076,-3.36137,0.15085,0.77316
473.039,53.68995,-3.38462,0.10589,0.77098
475.639,53.9407,-3.40622,0.07768035,0.7688
478.239,54.19113,-3.4231,0.04886519,0.76662
480.839,54.44181,-3.4368,0.03022181,0.76445
483.439,54.69282,-3.44811,0.0144664,0.76229
486.039,54.9439,-3.45857,0.001335974,0.76013
488.639,55.19531,-3.46703,-0.006771519,0.75797
491.239,55.44631,-3.4733,-0.01518365,0.75582
493.839,55.69835,-3.4814,-0.01762281,0.75367
496.439,55.9506,-3.48676,-0.0234508,0.75152
499.039,56.2026,-3.49214,-0.02480819,0.74939
501.639,56.4547,-3.49799,-0.02715465,0.74725
504.239,56.70737,-3.50195,-0.03049534,0.74513
506.839,56.9596,-3.50522,-0.03074436,0.743
509.439,57.21278,-3.50986,-0.03242909,0.74089
512.039,57.4664,-3.51314,-0.03252909,0.73877
514.639,57.72003,-3.51675,-0.03081205,0.73667
517.239,57.97351,-3.51973,-0.02996064,0.73457
519.839,58.22758,-3.52366,-0.02854252,0.73247
522.439,58.4816,-3.52561,-0.03118276,0.73039
525.039,58.7353,-3.52893,-0.0296908,0.7283
527.639,58.989,-3.52927,-0.02858857,0.72623
530.239,59.24354,-3.53223,-0.0294765,0.72416
532.839,59.49819,-3.53486,-0.03123465,0.7221
535.439,59.75331,-3.53628,-0.03776126,0.72004
538.039,60.0087,-3.53947,-0.03842336,0.71799
540.639,60.26419,-3.54083,-0.03959891,0.71595
543.239,60.5191,-3.54276,-0.04231087,0.71391
545.839,60.77457,-3.54407,-0.04577734,0.71188
548.439,61.02992,-3.54539,-0.0487083,0.70986
551.039,61.28535,-3.54873,-0.05311084,0.70785
553.639,61.5413,-3.54893,-0.05749182,0.70584
556.239,61.79684,-3.55058,-0.06247871,0.70384
558.839,62.0524,-3.55344,-0.06773081,0.70185
561.439,62.3086,-3.5546,-0.07009777,0.69986
564.039,62.5655,-3.55723,-0.07035654,0.69788
566.639,62.82193,-3.55986,-0.07368427,0.69591
569.239,63.0784,-3.56119,-0.07167161,0.69395
571.839,63.3353,-3.5625,-0.06854492,0.692
574.439,63.5916,-3.56513,-0.07392412,0.69005
577.039,63.8485,-3.56647,-0.0687183,0.68811
579.639,64.10556,-3.56777,-0.06262579,0.68618
582.239,64.36288,-3.56974,-0.06137382,0.68426
584.839,64.6212,-3.57492,-0.05878638,0.68234
587.439,64.87915,-3.57544,-0.06132376,0.68044
590.039,65.13648,-3.5784,-0.05892564,0.67854
592.639,65.39401,-3.57906,-0.05867521,0.67665
595.239,65.6516,-3.57916,-0.05292264,0.67477
597.839,65.9093,-3.58301,-0.05188662,0.6729
600.439,66.1678,-3.58433,-0.04419169,0.67104
603.039,66.42604,-3.58564,-0.0404509,0.66918
605.639,66.68429,-3.58696,-0.04156854,0.66733
608.239,66.94327,-3.58926,-0.03945361,0.6655
610.839,67.20151,-3.59222,-0.04291005,0.66367
613.439,67.46011,-3.59355,-0.04038066,0.66185
616.039,67.71885,-3.59486,-0.03657533,0.66004
618.639,67.97919,-3.59749,-0.03023643,0.65823
621.239,68.2391,-3.59881,-0.02500427,0.65644
623.839,68.4983,-3.60144,-0.02271434,0.65466
626.439,68.75825,-3.6021,-0.01629993,0.65288
629.039,69.01819,-3.60473,-0.01774445,0.65111
631.639,69.27865,-3.60538,-0.02044833,0.64936
634.239,69.53909,-3.60539,-0.01969136,0.64761
636.839,69.7993,-3.60835,-0.01864035,0.64587
638.739,69.99051,-3.60967,-0.01362799,0.6446