File: 01_Data/Face_Shield/MCC/Face_Shield_MCC_30K_min_220207_R1.txt
Sample ID:	C:\MCC\MCC Cal\Test\Shield_MCC_30K_min_220207_R1.txt
Sample Weight (mg):	4.17
Heating Rate (C/s):	0.5
Combustor Temp (C):	900
N2 Flow Rate (cc/min):	80
O2 Flow Rate (cc/min):	20
Calibration File:	C:\MCC\MCC Cal\Coeff1 JN10440_30_210304.txt.txt
T Correction Coefficients:	0	1.024463	0
Time Shift (s):	14
*
Time (s)	Temperature (C)	N2 flow rate (cc/min)	O2 flow rate (cc/min)	Flow Rate (cc/min)	Oxygen (%)	HRR (W/g)	Heating rate (C/s)
0.000	112.229	80.003	19.994	103.680	20.113	0.428	-0.019
8.000	112.175	80.006	19.993	103.673	20.113	0.419	-0.040
16.000	112.162	80.004	19.995	103.680	20.107	0.863	-0.004
24.000	112.219	80.002	19.994	103.794	20.096	1.723	0.028
32.000	112.748	80.003	19.992	103.813	20.079	3.016	0.106
40.000	113.798	80.004	19.993	103.880	20.076	3.261	0.138
48.001	115.241	80.004	19.993	103.872	20.066	4.062	0.219
56.000	116.946	80.004	19.995	103.870	20.066	4.007	0.247
64.000	118.845	80.005	19.994	103.874	20.063	4.283	0.230
72.001	121.031	80.006	19.994	103.901	20.062	4.326	0.274
80.000	123.503	80.004	19.994	103.908	20.059	4.585	0.328
88.000	126.117	80.005	19.994	103.935	20.056	4.804	0.329
96.000	129.029	80.001	19.997	103.917	20.050	5.258	0.381
104.000	132.084	80.004	19.993	103.927	20.050	5.287	0.386
112.001	135.348	80.004	19.993	103.923	20.049	5.346	0.394
120.000	138.770	80.005	19.993	103.919	20.051	5.218	0.436
128.001	142.321	80.005	19.993	103.920	20.047	5.562	0.454
136.000	145.939	80.005	19.995	103.933	20.046	5.594	0.492
144.000	149.591	80.004	19.994	103.939	20.046	5.604	0.466
152.000	153.366	80.004	19.993	103.926	20.047	5.531	0.482
160.000	157.170	80.004	19.994	103.939	20.043	5.866	0.465
168.000	161.156	80.003	19.993	103.923	20.047	5.556	0.516
176.000	165.056	80.007	19.992	103.922	20.045	5.658	0.489
184.000	169.050	80.003	19.995	103.914	20.049	5.344	0.517
192.000	173.004	80.003	19.994	103.905	20.049	5.372	0.494
200.000	177.031	80.007	19.994	103.906	20.051	5.208	0.494
208.000	180.986	80.010	19.990	103.907	20.049	5.336	0.485
216.000	184.965	80.003	19.993	103.902	20.049	5.369	0.479
224.000	188.910	80.003	19.993	103.909	20.048	5.407	0.486
232.000	192.784	80.011	19.988	103.911	20.044	5.772	0.429
240.000	196.671	80.005	19.996	103.885	20.046	5.589	0.458
248.000	200.597	80.003	19.993	103.890	20.042	5.947	0.522
256.000	204.574	80.014	19.996	103.884	20.042	5.874	0.475
264.000	208.635	80.007	19.990	103.892	20.040	6.100	0.535
272.000	212.600	80.002	19.998	103.882	20.038	6.210	0.462
280.000	216.508	80.009	19.999	103.688	20.072	3.530	0.420
288.000	218.735	80.012	19.989	103.469	20.117	0.064	0.162
296.000	219.005	80.003	19.994	103.450	20.122	-0.306	-0.034
304.000	217.716	80.010	19.992	103.453	20.118	-0.021	-0.218
312.000	215.432	79.981	19.995	103.438	20.125	-0.503	-0.317
320.000	212.472	80.008	19.992	103.437	20.128	-0.775	-0.363
328.000	209.023	79.984	19.994	103.440	20.129	-0.857	-0.439
336.000	205.280	80.011	19.995	103.439	20.134	-1.225	-0.506
344.000	201.359	80.013	19.994	103.462	20.129	-0.869	-0.563
352.000	197.411	80.011	19.992	103.404	20.127	-0.694	-0.501
360.000	193.448	80.007	19.993	103.474	20.131	-1.006	-0.504
368.000	189.511	80.005	19.994	103.483	20.125	-0.554	-0.499
376.000	185.709	80.003	19.998	103.484	20.120	-0.174	-0.477
384.000	181.860	79.984	19.996	103.499	20.124	-0.433	-0.483
392.000	178.283	79.997	19.996	103.517	20.119	-0.108	-0.439
400.000	174.897	80.011	19.991	103.519	20.119	-0.064	-0.408
408.000	171.565	80.006	19.993	103.514	20.111	0.576	-0.443
416.000	168.434	80.002	19.993	103.522	20.113	0.414	-0.383
424.000	165.490	80.014	19.992	103.532	20.108	0.795	-0.375
432.000	162.679	80.016	19.992	103.533	20.107	0.872	-0.343
440.000	159.914	79.987	19.996	103.547	20.088	2.326	-0.342
448.000	158.854	79.995	19.995	104.818	19.921	15.457	0.115
456.000	162.849	80.006	19.994	104.695	19.890	17.859	0.736
464.000	170.747	80.007	19.993	104.596	19.901	16.926	1.126
472.000	181.094	80.002	19.996	104.459	19.923	15.235	1.365
480.000	192.959	80.004	19.995	104.342	19.943	13.638	1.501
488.000	205.338	80.006	19.992	104.259	19.956	12.622	1.585
496.000	217.896	80.002	19.994	104.197	19.972	11.393	1.582
504.000	230.189	80.006	19.994	104.149	19.984	10.459	1.528
512.000	242.181	80.008	19.994	104.120	19.987	10.205	1.489
520.000	253.922	80.012	19.992	104.102	19.991	9.911	1.438
528.000	265.216	80.004	19.994	104.066	19.993	9.767	1.431
536.000	276.184	80.007	19.993	104.067	19.994	9.620	1.341
544.000	286.726	80.015	19.993	104.030	19.996	9.471	1.310
552.000	296.923	80.003	19.994	103.995	20.006	8.744	1.236
560.000	306.535	80.005	19.994	103.964	20.009	8.490	1.203
568.000	315.506	80.005	19.994	103.953	20.014	8.083	1.069
576.000	323.913	80.003	19.995	103.941	20.011	8.348	1.033
584.000	331.988	80.006	19.994	103.930	20.017	7.881	1.036
592.000	339.675	80.008	19.995	103.943	20.012	8.237	0.972
600.000	347.094	80.005	19.993	103.922	20.011	8.359	0.906
608.000	354.394	80.003	19.994	103.913	20.012	8.212	0.907
616.000	361.499	80.005	19.995	103.916	20.011	8.346	0.883
624.000	368.394	80.007	19.992	103.900	20.009	8.461	0.885
632.000	375.157	80.003	19.993	103.907	20.017	7.821	0.866
640.000	381.687	80.003	19.995	103.880	20.015	7.996	0.803
648.000	388.008	80.006	19.994	103.868	20.012	8.262	0.784
656.000	394.065	80.006	19.994	103.868	20.013	8.199	0.748
664.000	399.904	80.005	19.994	103.861	20.013	8.181	0.771
672.000	405.497	80.006	19.994	103.840	20.012	8.230	0.694
680.000	410.896	80.009	19.993	103.842	20.009	8.483	0.667
688.000	416.046	80.004	19.993	103.845	20.006	8.704	0.631
696.000	421.107	80.006	19.993	103.836	20.001	9.058	0.622
704.000	425.878	80.005	19.993	103.834	20.001	9.072	0.586
712.000	430.557	80.005	19.993	103.828	19.997	9.411	0.557
720.000	435.215	80.005	19.992	103.830	19.995	9.528	0.563
728.000	439.651	80.005	19.994	103.830	19.993	9.678	0.569
736.000	444.053	80.006	19.995	103.829	19.988	10.098	0.557
744.000	448.389	80.006	19.994	103.829	19.971	11.438	0.543
752.000	452.582	80.005	19.993	103.831	19.958	12.455	0.496
760.000	456.767	80.007	19.994	103.833	19.927	14.857	0.532
768.000	460.935	80.006	19.994	103.831	19.882	18.311	0.496
776.000	465.019	80.005	19.995	103.841	19.815	23.570	0.509
784.000	469.064	80.005	19.994	103.867	19.713	31.454	0.498
792.000	473.149	80.006	19.994	103.896	19.556	43.721	0.507
800.000	477.260	80.006	19.994	103.897	19.377	57.641	0.506
808.000	481.358	80.005	19.993	103.906	19.236	68.616	0.525
816.000	485.390	80.007	19.994	104.006	19.100	79.271	0.546
824.000	489.470	80.007	19.994	104.025	18.862	97.838	0.476
832.000	493.543	80.008	19.995	104.073	18.532	123.615	0.513
840.000	497.671	80.007	19.995	104.134	18.199	149.662	0.505
848.000	501.806	80.007	19.994	104.202	17.876	174.910	0.515
856.000	505.864	80.007	19.996	104.248	17.589	197.387	0.505
864.000	510.051	80.004	19.995	104.289	17.384	213.323	0.513
872.000	514.164	80.006	19.994	104.307	17.318	218.468	0.496
880.000	518.355	80.006	19.994	104.302	17.460	207.324	0.509
888.000	522.533	80.004	19.994	104.268	17.812	179.736	0.495
896.000	526.720	80.006	19.994	104.210	18.283	142.931	0.512
904.000	530.958	80.008	19.994	104.125	18.753	106.244	0.493
912.000	535.168	80.006	19.993	104.045	19.122	77.505	0.488
920.000	539.304	80.007	19.993	103.978	19.376	57.726	0.492
928.000	543.391	80.009	19.994	103.941	19.542	44.744	0.484
936.000	547.471	80.007	19.992	103.911	19.654	36.084	0.565
944.000	551.698	80.006	19.993	103.883	19.722	30.747	0.471
952.000	555.551	80.005	19.993	103.873	19.766	27.327	0.509
960.000	559.679	80.003	19.996	103.857	19.810	23.915	0.507
968.000	563.814	80.005	19.995	103.850	19.833	22.152	0.507
976.000	567.840	80.006	19.995	103.839	19.847	21.052	0.506
984.000	571.899	80.006	19.994	103.834	19.861	19.982	0.498
992.000	576.013	80.007	19.994	103.829	19.869	19.381	0.537
1000.000	579.978	80.005	19.994	103.832	19.878	18.674	0.486
1008.000	583.990	80.007	19.992	103.831	19.881	18.441	0.494
1016.000	588.092	80.006	19.993	103.831	19.887	17.912	0.487
1024.000	592.124	80.005	19.994	103.828	19.891	17.623	0.489
1032.000	596.270	80.005	19.994	103.820	19.896	17.211	0.503
1040.000	600.373	80.006	19.995	103.818	19.901	16.876	0.518
1048.000	604.488	80.005	19.994	103.806	19.904	16.591	0.498
1056.001	608.585	80.004	19.995	103.812	19.908	16.287	0.514
1064.000	612.652	80.005	19.994	103.798	19.913	15.890	0.540
1072.000	616.777	80.006	19.994	103.795	19.919	15.470	0.533
1080.000	620.793	80.006	19.993	103.794	19.921	15.291	0.488
1088.000	624.892	80.005	19.993	103.799	19.924	15.064	0.500
1096.001	628.927	80.007	19.994	103.797	19.931	14.525	0.533
1104.000	632.921	80.006	19.994	103.794	19.933	14.397	0.499
1112.000	637.027	80.005	19.993	103.792	19.941	13.770	0.501
1120.000	641.113	80.005	19.994	103.795	19.944	13.507	0.514
1128.001	645.064	80.005	19.993	103.787	19.946	13.333	0.475
1136.000	649.048	80.004	19.994	103.793	19.952	12.866	0.476
1144.001	653.076	80.005	19.994	103.792	19.954	12.743	0.501
1152.000	657.026	80.004	19.994	103.794	19.955	12.666	0.498
1160.000	660.987	80.006	19.993	103.788	19.952	12.927	0.511
1168.000	664.915	80.006	19.993	103.781	19.953	12.780	0.498
1176.000	668.760	80.007	19.993	103.789	19.957	12.486	0.302
1184.000	672.917	80.006	19.994	103.781	19.957	12.465	0.236
1192.000	676.852	80.005	19.993	103.787	19.960	12.235	0.482
1200.000	680.806	80.005	19.994	103.793	19.952	12.860	0.480
1208.000	684.697	80.005	19.994	103.790	19.956	12.611	0.516
1216.000	688.575	80.005	19.995	103.785	19.956	12.606	0.492
1224.000	692.591	80.004	19.994	103.793	19.950	13.057	0.506
1232.001	696.684	80.007	19.995	103.772	19.949	13.120	0.504
1240.000	700.766	80.007	19.994	103.778	19.944	13.538	0.531
1248.000	704.864	80.006	19.996	103.781	19.948	13.220	0.533
1256.000	708.828	80.009	19.994	103.782	19.946	13.370	0.515
1264.000	712.884	80.008	19.994	103.778	19.945	13.467	0.530
1272.000	716.925	80.006	19.993	103.778	19.945	13.469	0.513
1280.000	720.957	80.006	19.993	103.767	19.942	13.662	0.513
1288.000	725.054	80.004	19.994	103.793	19.943	13.625	0.506
1296.000	729.183	80.005	19.994	103.784	19.939	13.879	0.525
1304.000	733.266	80.005	19.994	103.769	19.941	13.709	0.502
1312.000	737.327	80.007	19.994	103.758	19.940	13.783	0.520
1320.000	741.284	80.007	19.995	103.753	19.939	13.903	0.473
1325.000	743.696	80.006	19.993	103.764	19.941	13.749	0.470