File: 01_Data/Face_Shield/MCC/Face_Shield_MCC_30K_min_220207_R2.txt
Sample ID:	C:\MCC\MCC Cal\Test\Shield_MCC_30K_min_220207_R2.txt
Sample Weight (mg):	4.72
Heating Rate (C/s):	0.5
Combustor Temp (C):	900
N2 Flow Rate (cc/min):	80
O2 Flow Rate (cc/min):	20
Calibration File:	C:\MCC\MCC Cal\Coeff1 JN10440_30_210304.txt.txt
T Correction Coefficients:	0	1.024463	0
Time Shift (s):	14
*
Time (s)	Temperature (C)	N2 flow rate (cc/min)	O2 flow rate (cc/min)	Flow Rate (cc/min)	Oxygen (%)	HRR (W/g)	Heating rate (C/s)
0.000	112.043	80.006	19.994	103.713	19.991	0.265	0.019
8.000	111.978	80.006	19.993	103.712	19.988	0.448	-0.035
16.000	112.025	80.005	19.993	103.760	19.985	0.685	-0.012
24.000	112.341	80.006	19.994	103.853	19.966	1.971	0.060
32.000	113.054	80.005	19.996	103.836	19.966	1.998	0.137
40.000	114.005	80.005	19.995	103.906	19.952	2.954	0.127
48.000	115.451	80.008	19.993	103.920	19.948	3.211	0.193
56.000	117.197	80.005	19.994	103.948	19.943	3.577	0.255
64.000	119.407	80.005	19.994	103.965	19.938	3.878	0.296
72.000	121.885	80.007	19.994	103.958	19.932	4.292	0.322
80.001	124.659	80.006	19.994	103.958	19.934	4.174	0.355
88.000	127.738	80.005	19.993	103.974	19.935	4.086	0.403
96.001	130.984	80.005	19.993	103.980	19.937	3.954	0.430
104.001	134.354	80.005	19.995	103.971	19.934	4.185	0.408
112.001	137.956	80.006	19.993	103.970	19.932	4.298	0.473
120.000	141.544	80.007	19.993	103.953	19.935	4.092	0.459
128.000	145.339	80.006	19.994	103.957	19.934	4.144	0.469
136.000	149.110	80.006	19.995	103.959	19.934	4.168	0.484
144.000	152.974	80.006	19.992	103.956	19.935	4.083	0.467
152.000	156.896	80.004	19.993	103.951	19.935	4.093	0.501
160.000	160.895	80.004	19.993	103.951	19.932	4.317	0.496
168.000	164.871	80.003	19.993	103.950	19.927	4.620	0.474
176.000	168.851	80.004	19.994	103.952	19.931	4.381	0.500
184.000	172.888	80.007	19.992	103.942	19.932	4.290	0.539
192.000	176.870	80.007	19.994	103.943	19.935	4.097	0.494
200.000	180.874	80.007	19.995	103.941	19.938	3.888	0.495
208.000	184.939	80.006	19.993	103.930	19.938	3.890	0.498
216.000	188.894	80.007	19.993	103.924	19.936	4.014	0.478
224.000	192.871	80.003	19.995	103.921	19.938	3.907	0.518
232.000	196.737	80.004	19.994	103.917	19.940	3.765	0.515
240.000	200.679	80.004	19.994	103.916	19.936	4.048	0.499
248.000	204.633	80.005	19.993	103.910	19.935	4.108	0.509
256.000	208.603	80.005	19.993	103.910	19.937	3.931	0.446
264.000	212.599	80.009	19.994	103.906	19.937	3.957	0.486
272.000	216.560	80.007	19.994	103.907	19.937	3.980	0.510
280.000	220.552	80.007	19.994	103.908	19.936	4.019	0.481
288.000	224.543	80.008	19.993	103.910	19.934	4.177	0.498
296.000	228.572	80.008	19.993	103.907	19.932	4.296	0.535
304.000	232.566	80.004	19.995	103.909	19.939	3.814	0.465
312.000	236.575	80.007	19.993	103.905	19.938	3.859	0.484
320.000	240.562	80.006	19.993	103.898	19.936	4.030	0.460
328.000	244.562	80.007	19.994	103.900	19.936	4.030	0.466
336.000	248.545	80.005	19.992	103.901	19.934	4.171	0.529
344.000	252.525	80.006	19.993	103.899	19.941	3.712	0.480
352.000	256.528	80.007	19.992	103.897	19.937	3.937	0.501
360.000	260.474	80.006	19.992	103.900	19.936	3.991	0.468
368.000	264.393	80.006	19.992	103.883	19.936	4.048	0.492
376.000	268.340	80.009	19.993	103.892	19.933	4.235	0.487
384.000	272.318	80.007	19.994	103.893	19.935	4.064	0.476
392.000	276.254	80.008	19.992	103.881	19.938	3.866	0.498
400.000	280.264	80.006	19.993	103.875	19.934	4.150	0.514
408.000	284.255	80.005	19.994	103.887	19.936	4.030	0.501
416.000	288.223	80.006	19.994	103.884	19.934	4.167	0.501
424.000	292.216	80.006	19.994	103.875	19.932	4.306	0.485
432.001	296.131	80.006	19.993	103.882	19.933	4.202	0.471
440.000	300.057	80.008	19.992	103.871	19.936	4.001	0.490
448.000	303.986	80.007	19.994	103.871	19.929	4.519	0.517
456.000	307.935	80.007	19.993	103.868	19.931	4.338	0.478
464.000	311.998	80.009	19.993	103.878	19.927	4.662	0.521
472.000	316.145	80.006	19.992	103.889	19.929	4.511	0.541
480.000	320.296	80.006	19.994	103.880	19.929	4.488	0.522
488.000	324.549	80.006	19.995	103.878	19.927	4.654	0.499
496.000	328.782	80.006	19.993	103.875	19.928	4.562	0.497
504.000	333.077	80.007	19.993	103.872	19.929	4.511	0.512
512.000	337.336	80.006	19.995	103.869	19.927	4.637	0.523
520.000	341.540	80.007	19.994	103.869	19.930	4.436	0.544
528.000	345.650	80.008	19.993	103.866	19.929	4.515	0.512
536.000	349.822	80.008	19.993	103.870	19.929	4.526	0.533
544.001	353.919	80.007	19.992	103.866	19.926	4.735	0.487
552.000	358.039	80.007	19.994	103.863	19.925	4.769	0.526
560.000	362.135	80.006	19.993	103.871	19.926	4.716	0.506
568.000	366.279	80.007	19.992	103.868	19.929	4.469	0.531
576.000	370.404	80.006	19.994	103.850	19.924	4.843	0.504
584.000	374.511	80.005	19.995	103.853	19.926	4.734	0.521
592.000	378.570	80.005	19.993	103.855	19.925	4.751	0.481
600.000	382.653	80.009	19.994	103.847	19.923	4.919	0.468
608.000	386.722	80.005	19.995	103.854	19.928	4.570	0.515
616.000	390.660	80.006	19.994	103.850	19.922	4.955	0.481
624.000	394.728	80.009	19.992	103.842	19.919	5.187	0.479
632.000	398.724	80.007	19.992	103.851	19.919	5.212	0.495
640.000	402.689	80.006	19.994	103.834	19.919	5.216	0.519
648.000	406.711	80.007	19.993	103.832	19.920	5.110	0.520
656.000	410.716	80.008	19.993	103.832	19.914	5.519	0.495
664.000	414.702	80.006	19.994	103.845	19.916	5.419	0.478
672.000	418.709	80.006	19.995	103.844	19.914	5.553	0.519
680.000	422.718	80.007	19.994	103.851	19.910	5.775	0.500
688.000	426.763	80.007	19.993	103.842	19.907	5.995	0.496
696.000	430.802	80.006	19.994	103.865	19.905	6.184	0.528
704.000	434.886	80.009	19.995	103.837	19.899	6.584	0.503
712.000	438.884	80.008	19.994	103.852	19.894	6.935	0.506
720.000	442.915	80.005	19.994	103.848	19.888	7.312	0.522
728.000	446.937	80.006	19.994	103.866	19.875	8.218	0.479
736.000	450.973	80.007	19.993	103.853	19.855	9.611	0.484
744.000	455.030	80.007	19.994	103.871	19.826	11.545	0.482
752.000	459.086	80.005	19.993	103.872	19.783	14.518	0.495
760.000	463.118	80.008	19.994	103.880	19.722	18.753	0.501
768.000	467.189	80.007	19.994	103.904	19.634	24.742	0.510
776.000	471.285	80.008	19.993	103.928	19.502	33.818	0.534
784.000	475.446	80.008	19.993	103.947	19.288	48.518	0.501
792.000	479.444	80.009	19.995	103.953	18.999	68.522	0.535
800.000	483.459	80.005	19.993	104.045	18.881	76.615	0.635
808.001	487.640	80.005	19.993	104.078	18.673	90.995	0.568
816.000	491.743	80.005	19.993	104.138	18.356	112.849	0.476
824.000	495.930	80.005	19.994	104.178	18.001	137.430	0.488
832.000	500.189	80.005	19.994	104.258	17.640	162.407	0.529
840.000	504.431	80.008	19.993	104.315	17.302	185.796	0.542
848.000	508.636	80.009	19.993	104.371	17.039	203.914	0.584
856.000	512.773	80.007	19.994	104.385	16.926	211.694	0.506
864.000	517.096	80.009	19.994	104.383	17.023	204.909	0.548
872.000	521.222	80.008	19.993	104.341	17.349	182.335	0.474
880.000	525.485	80.009	19.994	104.290	17.836	148.677	0.532
888.000	529.577	80.006	19.993	104.206	18.360	112.509	0.499
896.000	533.741	80.005	19.995	104.115	18.809	81.551	0.493
904.000	537.901	80.006	19.994	104.049	19.124	59.861	0.543
912.000	542.027	80.006	19.995	103.996	19.334	45.416	0.502
920.000	546.197	80.006	19.996	103.951	19.478	35.487	0.522
928.000	550.270	80.008	19.994	103.933	19.571	29.083	0.470
936.000	554.386	80.007	19.994	103.910	19.633	24.813	0.521
944.000	558.468	80.008	19.994	103.907	19.675	21.930	0.500
952.000	562.549	80.009	19.992	103.880	19.705	19.865	0.496
960.000	566.575	80.008	19.994	103.874	19.720	18.842	0.490
968.000	570.587	80.006	19.994	103.868	19.745	17.141	0.469
976.000	574.657	80.008	19.994	103.867	19.751	16.693	0.505
984.000	578.778	80.006	19.995	103.856	19.763	15.888	0.502
992.000	582.851	80.005	19.995	103.843	19.776	15.023	0.505
1000.000	586.932	80.005	19.993	103.840	19.784	14.489	0.522
1008.000	591.001	80.007	19.993	103.846	19.789	14.113	0.532
1016.000	595.076	80.006	19.993	103.840	19.796	13.658	0.518
1024.000	599.108	80.007	19.994	103.838	19.801	13.266	0.516
1032.000	603.099	80.008	19.993	103.828	19.810	12.684	0.494
1040.000	607.130	80.009	19.991	103.830	19.819	12.073	0.500
1048.000	611.151	80.006	19.994	103.828	19.824	11.696	0.524
1056.000	615.206	80.007	19.994	103.821	19.832	11.150	0.499
1064.000	619.250	80.007	19.995	103.828	19.836	10.894	0.510
1072.000	623.274	80.006	19.993	103.829	19.848	10.076	0.489
1080.001	627.291	80.005	19.995	103.826	19.849	9.980	0.507
1088.000	631.257	80.005	19.995	103.823	19.860	9.211	0.487
1096.000	635.375	80.009	19.994	103.806	19.864	8.974	0.524
1104.000	639.467	80.008	19.994	103.822	19.872	8.425	0.533
1112.000	643.482	80.008	19.994	103.817	19.876	8.144	0.499
1120.000	647.506	80.011	19.994	103.808	19.879	7.950	0.476
1128.000	651.534	80.007	19.993	103.797	19.879	7.902	0.497
1136.000	655.610	80.006	19.993	103.810	19.880	7.863	0.518
1144.000	659.658	80.006	19.993	103.800	19.883	7.655	0.526
1152.000	663.665	80.005	19.994	103.803	19.890	7.197	0.528
1160.000	667.767	80.006	19.995	103.816	19.892	7.056	0.522
1168.001	671.989	80.004	19.994	103.799	19.892	7.022	0.534
1176.000	676.184	80.007	19.993	103.800	19.893	6.985	0.522
1184.000	680.404	80.008	19.996	103.798	19.895	6.812	0.511
1192.000	684.573	80.008	19.994	103.804	19.896	6.790	0.521
1200.001	688.760	80.009	19.994	103.795	19.892	7.043	0.507
1208.001	692.902	80.009	19.994	103.792	19.894	6.907	0.532
1216.001	697.058	80.006	19.993	103.800	19.892	7.027	0.524
1224.000	701.195	80.007	19.993	103.795	19.892	7.070	0.533
1232.000	705.288	80.008	19.994	103.798	19.893	6.941	0.503
1240.000	709.387	80.006	19.994	103.793	19.893	7.000	0.517
1248.000	713.462	80.007	19.994	103.797	19.887	7.388	0.496
1256.000	717.569	80.008	19.994	103.791	19.890	7.207	0.522
1264.000	721.626	80.008	19.993	103.791	19.886	7.426	0.531
1272.001	725.725	80.006	19.995	103.791	19.888	7.286	0.483
1280.000	729.779	80.008	19.994	103.791	19.890	7.209	0.527
1288.000	733.788	80.009	19.993	103.793	19.886	7.470	0.462
1296.000	737.903	80.006	19.994	103.789	19.886	7.450	0.504
1304.000	742.019	80.006	19.994	103.789	19.886	7.455	0.526
1307.000	743.526	80.007	19.993	103.788	19.889	7.213	0.483